File: results/E_Glass/1Mass_DSC_FT/E_Glass_linear_dsc_M_FT_0_cone_Temp0.csv
# Time [s], Temperature [C]
0.000000000000000000e+00,25
7,88.8656
14,122.359
21,145.948
28,164.569
35,180.062
42,193.355
49,205.005
56,215.381
63,224.745
70,233.299
77,241.203
84,248.583
91,255.536
98,262.13
105,268.399
112,274.361
119,280.034
126,285.442
133,290.613
140,295.578
147,300.36
154,304.979
161,309.451
168,313.786
175,317.993
182,322.077
189,326.043
196,329.894
203,333.634
210,337.261
217,340.778
224,344.186
231,347.483
238,350.669
245,353.746
252,356.711
259,359.566
266,362.311
273,364.947
280,367.476
287,369.902
294,372.225
301,374.451
308,376.587
315,378.633
322,380.6
329,382.493
336,384.317
343,386.079
350,387.787
357,389.444
364,391.055
371,392.628
378,394.165
385,395.668
392,397.143
399,398.587
406,400.005
413,401.398
420,402.762
427,404.101
434,405.414
441,406.695
448,407.948
455,409.172
462,410.366
469,411.527
476,412.658
483,413.756
490,414.824
497,415.859
504,416.865
511,417.842
518,418.79
525,419.71
532,420.605
539,421.476
546,422.323
553,423.147
560,423.95
567,424.734
574,425.5
581,426.247
588,426.978
595,427.694
602,428.396
609,429.084
616,429.762
623,430.425
630,431.08
637,431.724
644,432.358
651,432.984
658,433.603
665,434.216
672,434.821
679,435.423
686,436.018
693,436.61
700,437.198
707,437.783
714,438.365
721,438.948
728,439.527
735,440.108
742,440.689
749,441.27
756,441.853
763,442.439
770,443.026
777,443.618
784,444.214
791,444.814
798,445.419
805,446.031
812,446.647
819,447.27
826,447.898
833,448.534
840,449.175
847,449.822
854,450.474
861,451.129
868,451.787
875,452.446
882,453.105
889,453.76
896,454.411
903,455.055
910,455.691
917,456.316
924,456.931
931,457.531
938,458.118
945,458.69
952,459.248
959,459.79
966,460.317
973,460.828
980,461.323
987,461.804
994,462.27
1000,462.659
1010,463.284
1020,463.881
1020,463.881
1030,464.451
1040,464.996
1040,464.996
1050,465.516
1060,466.013
1060,466.013
1070,466.488
1080,466.94
1090,467.373
1090,467.373
1100,467.786
1110,468.18
1110,468.18
1120,468.556
1130,468.915
1130,468.915
1140,469.258
1150,469.585
1160,469.897
1160,469.897
1170,470.195
1180,470.477
1180,470.477
1190,470.749
1200,471.007
1200,471.007
1210,471.253
1220,471.488
1230,471.712
1230,471.712
1240,471.926
1250,472.129
1250,472.129
1260,472.324
1270,472.509
1270,472.509
1280,472.686
1290,472.854
1300,473.016
1300,473.016
1310,473.168
1320,473.314
1320,473.314
1330,473.454
1340,473.586
1340,473.586
1350,473.714
1360,473.834
1370,473.948
1370,473.948
1380,474.058
1390,474.163
1390,474.163
1400,474.263
1410,474.357
1410,474.357
1420,474.447
1430,474.535
1440,474.617
1440,474.617
1450,474.695
1460,474.769
1460,474.769
1470,474.84
1480,474.909
1480,474.909
1490,474.974
1500,475.035
1510,475.093
1510,475.093
1520,475.149
1530,475.202
1530,475.202
1540,475.253
1550,475.303
1550,475.303
1560,475.349
1570,475.393
1580,475.434
1580,475.434
1590,475.474
1600,475.512
1600,475.512
1610,475.548
1620,475.582
1620,475.582
1630,475.615
1640,475.646
1650,475.676
1650,475.676
1660,475.706
1670,475.734
1670,475.734
1680,475.759
1690,475.784
1690,475.784
1700,475.807
1710,475.83
1720,475.851
1720,475.851
1730,475.871
1740,475.89
1740,475.89
1750,475.909
1760,475.926
1760,475.926
1770,475.943
1780,475.959
1790,475.974
1790,475.974
1800,475.988
1800,475.988