File: results/E_Glass/1Mass_DSC_FT/E_Glass_linear_dsc_M_FT_0_cone_BT.csv
# Time [s], Temperature [C]
0.000000000000000000e+00,25
7,25.0001
14,25.0252
21,25.3491
28,26.482
35,28.7291
42,32.1245
49,36.5553
56,41.8576
63,47.864
70,54.4231
77,61.405
84,68.7019
91,76.2248
98,83.9016
105,91.6736
112,99.4934
119,107.323
126,115.131
133,122.894
140,130.594
147,138.214
154,145.744
161,153.175
168,160.5
175,167.715
182,174.814
189,181.796
196,188.658
203,195.397
210,202.014
217,208.506
224,214.873
231,221.115
238,227.229
245,233.217
252,239.076
259,244.807
266,250.408
273,255.878
280,261.219
287,266.427
294,271.504
301,276.447
308,281.255
315,285.926
322,290.457
329,294.845
336,299.087
343,303.181
350,307.124
357,310.912
364,314.544
371,318.016
378,321.329
385,324.48
392,327.469
399,330.296
406,332.964
413,335.474
420,337.829
427,340.035
434,342.096
441,344.02
448,345.813
455,347.483
462,349.04
469,350.492
476,351.848
483,353.117
490,354.308
497,355.431
504,356.493
511,357.503
518,358.467
525,359.393
532,360.288
539,361.156
546,362.004
553,362.836
560,363.657
567,364.47
574,365.279
581,366.087
588,366.897
595,367.712
602,368.534
609,369.366
616,370.209
623,371.066
630,371.938
637,372.828
644,373.736
651,374.664
658,375.616
665,376.591
672,377.591
679,378.62
686,379.677
693,380.766
700,381.887
707,383.044
714,384.238
721,385.471
728,386.744
735,388.062
742,389.424
749,390.834
756,392.294
763,393.805
770,395.369
777,396.987
784,398.659
791,400.387
798,402.168
805,404.002
812,405.885
819,407.812
826,409.776
833,411.771
840,413.786
847,415.809
854,417.83
861,419.834
868,421.81
875,423.746
882,425.634
889,427.467
896,429.24
903,430.952
910,432.602
917,434.192
924,435.725
931,437.203
938,438.629
945,440.007
952,441.337
959,442.624
966,443.867
973,445.071
980,446.235
987,447.361
994,448.452
1000,449.358
1010,450.814
1020,452.203
1020,452.203
1030,453.529
1040,454.794
1040,454.794
1050,456.002
1060,457.154
1060,457.154
1070,458.254
1080,459.303
1090,460.304
1090,460.304
1100,461.259
1110,462.17
1110,462.17
1120,463.039
1130,463.868
1130,463.868
1140,464.659
1150,465.414
1160,466.133
1160,466.133
1170,466.819
1180,467.473
1180,467.473
1190,468.097
1200,468.692
1200,468.692
1210,469.26
1220,469.801
1230,470.316
1230,470.316
1240,470.808
1250,471.277
1250,471.277
1260,471.724
1270,472.15
1270,472.15
1280,472.557
1290,472.944
1300,473.313
1300,473.313
1310,473.665
1320,474.001
1320,474.001
1330,474.321
1340,474.625
1340,474.625
1350,474.916
1360,475.193
1370,475.457
1370,475.457
1380,475.709
1390,475.948
1390,475.948
1400,476.177
1410,476.395
1410,476.395
1420,476.603
1430,476.8
1440,476.989
1440,476.989
1450,477.169
1460,477.34
1460,477.34
1470,477.503
1480,477.659
1480,477.659
1490,477.807
1500,477.948
1510,478.083
1510,478.083
1520,478.211
1530,478.334
1530,478.334
1540,478.45
1550,478.561
1550,478.561
1560,478.667
1570,478.768
1580,478.864
1580,478.864
1590,478.956
1600,479.043
1600,479.043
1610,479.126
1620,479.205
1620,479.205
1630,479.281
1640,479.353
1650,479.421
1650,479.421
1660,479.487
1670,479.549
1670,479.549
1680,479.608
1690,479.665
1690,479.665
1700,479.718
1710,479.77
1720,479.819
1720,479.819
1730,479.865
1740,479.91
1740,479.91
1750,479.952
1760,479.992
1760,479.992
1770,480.031
1780,480.067
1790,480.102
1790,480.102
1800,480.135
1800,480.135