File: results/E_Glass/1Mass_DSC_FT/E_Glass_linear_dsc_M_FT_progressMonitor.csv
Loop,Time,r0-A,p0-C0,p1-C0,p0-Cpa,p1-Cpa,p0-Cpb,p1-Cpb,r0-E,r0-Hp,p0-K,p1-K,Value,r0-Xi,p0-eps,p1-eps,p0-ka,p1-ka,p0-kb,p1-kb,r0-n,r0-nO2,p0-rho,p1-rho,
-1,0,2.77e+12,1.0,0.0,1013.5,393.451,0.0452982,0.39117,1.52e+05,280677,15053,100000000.0,0.00126936,0.733809,0.966798,0.94,0.325168,0.0613958,0.000145536,9.56077e-05,2.68223,0.0,1683.0,1235.0,
4,811.3256,4.19e+12,1.0,0.0,1018.51,1493.23,0.0443613,0.574375,1.84e+05,88566.4,14817.7,100000000.0,0.000188462,0.733809,0.889413,0.94,0.274664,0.120651,6.95524e-05,0.000345664,1.26083,0.0,1683.0,1235.0,
9,1699.63,4.65e+12,1.0,0.0,1022.1,993.467,0.0438575,0.4529,1.85e+05,98564.1,16242.4,100000000.0,4.25451e-05,0.733809,0.909819,0.94,0.29169,0.12031,7.61588e-05,0.000301395,1.26904,0.0,1683.0,1235.0,
14,2585.06,4.58e+12,1.0,0.0,1030.34,905.674,0.0437418,0.42634,1.85e+05,103882,14926.2,100000000.0,2.30154e-05,0.733809,0.913621,0.94,0.290127,0.122504,7.83632e-05,0.000260204,1.08121,0.0,1683.0,1235.0,
19,3503.78,4.49e+12,1.0,0.0,1029.92,894.177,0.0437685,0.419522,1.85e+05,105425,13831.5,100000000.0,1.80217e-05,0.733809,0.913625,0.94,0.28875,0.121215,7.95444e-05,0.000250396,0.951799,0.0,1683.0,1235.0,
24,4478.69,4.88e+12,1.0,0.0,1033.75,901.646,0.0436248,0.403034,1.86e+05,105050,12181.3,100000000.0,1.68323e-05,0.733809,0.915536,0.94,0.287476,0.121707,8.36755e-05,0.000247458,0.970865,0.0,1683.0,1235.0,
29,5416.91,5.30e+12,1.0,0.0,1033.53,928.287,0.0435731,0.382476,1.86e+05,105141,9373.51,100000000.0,1.5087e-05,0.733809,0.916731,0.94,0.286328,0.122113,8.74056e-05,0.000250215,0.967282,0.0,1683.0,1235.0,
34,6388.36,5.30e+12,1.0,0.0,1033.48,933.257,0.0435605,0.379942,1.86e+05,105111,9218.91,100000000.0,1.47333e-05,0.733809,0.916456,0.94,0.286169,0.121567,8.74516e-05,0.000252611,0.984292,0.0,1683.0,1235.0,
39,7288.87,3.27e+12,1.0,0.0,1050.12,910.512,0.0419525,0.434908,1.83e+05,102512,9646.26,100000000.0,9.41419e-06,0.733809,0.924294,0.94,0.301511,0.146538,5.58435e-05,0.000219909,1.00868,0.0,1683.0,1235.0,
44,8190.48,3.07e+12,1.0,0.0,1057.55,882.474,0.0415337,0.464133,1.83e+05,101828,10539.1,100000000.0,7.46297e-06,0.733809,0.927326,0.94,0.30558,0.163314,4.66435e-05,0.000192085,1.016,0.0,1683.0,1235.0,
49,9083.32,3.23e+12,1.0,0.0,1076.96,872.281,0.0414378,0.473792,1.83e+05,100738,12208.6,100000000.0,4.7052e-06,0.733809,0.938863,0.94,0.315156,0.0924356,3.54569e-05,0.000288406,1.01478,0.0,1683.0,1235.0,
54,9925.59,3.43e+12,1.0,0.0,1081.71,890.412,0.040951,0.460576,1.83e+05,99850.7,13986.5,100000000.0,3.36749e-06,0.733809,0.941449,0.94,0.317622,0.030489,3.23955e-05,0.000377021,1.02014,0.0,1683.0,1235.0,
59,10796.5,3.40e+12,1.0,0.0,1078.02,893.104,0.0408038,0.454976,1.83e+05,99979.2,12427.1,100000000.0,2.85146e-06,0.733809,0.938911,0.94,0.315017,0.0254589,3.46167e-05,0.000384002,1.01855,0.0,1683.0,1235.0,
64,11643,3.38e+12,1.0,0.0,1076.42,892.567,0.0407114,0.455603,1.83e+05,99994.2,12195.2,100000000.0,2.65298e-06,0.733809,0.937565,0.94,0.314605,0.0237863,3.41926e-05,0.000386731,1.01823,0.0,1683.0,1235.0,
69,12485.3,3.37e+12,1.0,0.0,1074.62,899.062,0.0406902,0.449285,1.83e+05,99993.9,11886.5,100000000.0,2.54565e-06,0.733809,0.936301,0.94,0.314458,0.0238199,3.29597e-05,0.000387417,1.01853,0.0,1683.0,1235.0,
74,13383,3.36e+12,1.0,0.0,1073.81,903.43,0.0406976,0.443783,1.83e+05,99973.8,11849.1,100000000.0,2.52774e-06,0.733809,0.935707,0.94,0.314265,0.0238055,3.27357e-05,0.00038752,1.019,0.0,1683.0,1235.0,
79,14253.9,3.34e+12,1.0,0.0,1073.61,911.321,0.0407123,0.433491,1.83e+05,99943.2,11860.3,100000000.0,2.52042e-06,0.733809,0.935568,0.94,0.314234,0.0237382,3.26234e-05,0.000387688,1.01906,0.0,1683.0,1235.0,
84,15122.7,3.33e+12,1.0,0.0,1073.81,913.327,0.0407301,0.43028,1.83e+05,99939.7,11913.5,100000000.0,2.51793e-06,0.733809,0.935683,0.94,0.314282,0.023728,3.26471e-05,0.00038758,1.01887,0.0,1683.0,1235.0,
89,15903.7,3.31e+12,1.0,0.0,1073.36,916.371,0.0407287,0.426014,1.83e+05,99944,11864.8,100000000.0,2.51504e-06,0.733809,0.935371,0.94,0.314171,0.0237257,3.25712e-05,0.000387557,1.01845,0.0,1683.0,1235.0,
94,16700.3,3.28e+12,1.0,0.0,1073.28,926.603,0.0408062,0.411276,1.83e+05,99962.6,11843.1,100000000.0,2.50999e-06,0.733809,0.935369,0.94,0.314118,0.0238252,3.27013e-05,0.000387381,1.01741,0.0,1683.0,1235.0,
99,17544.7,3.24e+12,1.0,0.0,1073.81,945.75,0.0409997,0.384124,1.83e+05,99916.6,11849,100000000.0,2.49617e-06,0.733809,0.935773,0.94,0.314255,0.0238553,3.2826e-05,0.000387148,1.01678,0.0,1683.0,1235.0,
104,18390.8,3.20e+12,1.0,0.0,1074.26,959.529,0.0410918,0.365148,1.83e+05,99857.8,11872.1,100000000.0,2.48264e-06,0.733809,0.936116,0.94,0.314364,0.0237312,3.2935e-05,0.000387296,1.01692,0.0,1683.0,1235.0,
109,19264.6,3.18e+12,1.0,0.0,1074.54,997.012,0.0415844,0.311565,1.83e+05,99819.2,11855.4,100000000.0,2.46715e-06,0.733809,0.936496,0.94,0.314327,0.0237367,3.34842e-05,0.000387037,1.01549,0.0,1683.0,1235.0,
114,20146.4,3.14e+12,1.0,0.0,1074.09,1029.92,0.0419987,0.265155,1.83e+05,99791.3,11878.6,100000000.0,2.4535e-06,0.733809,0.936336,0.94,0.314182,0.0237408,3.36515e-05,0.000387008,1.01457,0.0,1683.0,1235.0,
119,20958,3.11e+12,1.0,0.0,1074.11,1060.77,0.0425215,0.22072,1.83e+05,99722.4,11896.4,100000000.0,2.44406e-06,0.733809,0.936464,0.94,0.314249,0.0237711,3.36067e-05,0.00038664,1.01419,0.0,1683.0,1235.0,
124,21774.1,3.10e+12,1.0,0.0,1074.45,1082.16,0.0428543,0.190744,1.83e+05,99656,11938.7,100000000.0,2.44034e-06,0.733809,0.936775,0.94,0.314374,0.0237815,3.36336e-05,0.000386442,1.01403,0.0,1683.0,1235.0,
129,22618.3,3.09e+12,1.0,0.0,1074.35,1086.56,0.0428957,0.184564,1.83e+05,99659.1,11926.5,100000000.0,2.43856e-06,0.733809,0.936736,0.94,0.314305,0.0237752,3.37565e-05,0.000386455,1.01377,0.0,1683.0,1235.0,
134,23473.2,3.08e+12,1.0,0.0,1074.36,1088.28,0.0429278,0.182167,1.83e+05,99652.6,11929.9,100000000.0,2.43813e-06,0.733809,0.936757,0.94,0.31431,0.0237993,3.37678e-05,0.000386396,1.01371,0.0,1683.0,1235.0,
139,24361.2,3.07e+12,1.0,0.0,1074.35,1088.3,0.0429226,0.182033,1.83e+05,99655.3,11925.5,100000000.0,2.43721e-06,0.733809,0.936747,0.94,0.314294,0.0238741,3.38034e-05,0.000386242,1.01341,0.0,1683.0,1235.0,
144,25328.2,3.07e+12,1.0,0.0,1074.34,1087.92,0.0429161,0.182505,1.83e+05,99658,11925.5,100000000.0,2.43705e-06,0.733809,0.93674,0.94,0.314289,0.0238985,3.38113e-05,0.000386193,1.01331,0.0,1683.0,1235.0,
149,26292.5,3.06e+12,1.0,0.0,1074.32,1087.89,0.0429182,0.182532,1.83e+05,99660.3,11922.9,100000000.0,2.43701e-06,0.733809,0.936726,0.94,0.314276,0.0239229,3.38282e-05,0.000386147,1.01321,0.0,1683.0,1235.0,
154,27243.8,3.06e+12,1.0,0.0,1074.32,1087.89,0.0429182,0.182532,1.83e+05,99660.3,11922.9,100000000.0,2.43701e-06,0.733809,0.936726,0.94,0.314276,0.0239229,3.38282e-05,0.000386147,1.01321,0.0,1683.0,1235.0,
159,28123.4,3.06e+12,1.0,0.0,1074.31,1087.58,0.0429157,0.18297,1.83e+05,99661.3,11922.1,100000000.0,2.43693e-06,0.733809,0.936721,0.94,0.314274,0.0239316,3.38279e-05,0.000386133,1.0132,0.0,1683.0,1235.0,
164,29032.4,3.06e+12,1.0,0.0,1074.34,1088.49,0.0429291,0.18169,1.83e+05,99659.1,11926,100000000.0,2.43687e-06,0.733809,0.936747,0.94,0.314279,0.0239277,3.38466e-05,0.000386138,1.01319,0.0,1683.0,1235.0,
169,29898.8,3.06e+12,1.0,0.0,1074.35,1088.55,0.0429295,0.181601,1.83e+05,99658.8,11927.3,100000000.0,2.43683e-06,0.733809,0.936752,0.94,0.314281,0.0239258,3.38481e-05,0.000386144,1.0132,0.0,1683.0,1235.0,
174,30955.3,3.06e+12,1.0,0.0,1074.38,1089.1,0.0429385,0.180819,1.83e+05,99658.3,11931.5,100000000.0,2.43674e-06,0.733809,0.936776,0.94,0.314281,0.0239427,3.38773e-05,0.000386117,1.01314,0.0,1683.0,1235.0,
179,31777.4,3.06e+12,1.0,0.0,1074.38,1089.1,0.0429385,0.180819,1.83e+05,99658.3,11931.5,100000000.0,2.43674e-06,0.733809,0.936776,0.94,0.314281,0.0239427,3.38773e-05,0.000386117,1.01314,0.0,1683.0,1235.0,
184,32678.4,3.06e+12,1.0,0.0,1074.38,1089.1,0.0429385,0.180819,1.83e+05,99658.3,11931.5,100000000.0,2.43674e-06,0.733809,0.936776,0.94,0.314281,0.0239427,3.38773e-05,0.000386117,1.01314,0.0,1683.0,1235.0,
189,33527,3.06e+12,1.0,0.0,1074.38,1089.1,0.0429385,0.180819,1.83e+05,99658.3,11931.5,100000000.0,2.43674e-06,0.733809,0.936776,0.94,0.314281,0.0239427,3.38773e-05,0.000386117,1.01314,0.0,1683.0,1235.0,
194,34371.3,3.06e+12,1.0,0.0,1074.38,1089.1,0.0429385,0.180819,1.83e+05,99658.3,11931.5,100000000.0,2.43674e-06,0.733809,0.936776,0.94,0.314281,0.0239427,3.38773e-05,0.000386117,1.01314,0.0,1683.0,1235.0,
199,34909.3,3.06e+12,1.0,0.0,1074.41,1090.62,0.0429588,0.178622,1.83e+05,99656.6,11935.7,100000000.0,2.43671e-06,0.733809,0.936807,0.94,0.314288,0.0239383,3.38962e-05,0.000386103,1.01308,0.0,1683.0,1235.0,