File: results/E_Glass/1Mass_DSC_FT/E_Glass_linear_dsc_M_FT_0_cone_Bh.csv
# Time [s], Convective Heat Transfer Coefficient [W/m2K]
0.000000000000000000e+00,0.000000000000000000e+00
7,0.0617355
14,0.445485
21,1.0703
28,1.73296
35,2.3571
42,2.9248
49,3.43641
56,3.89741
63,4.31414
70,4.69252
77,5.03768
84,5.35398
91,5.64508
98,5.91406
105,6.16351
112,6.39562
119,6.61227
126,6.81505
133,7.00535
140,7.18438
147,7.35321
154,7.51274
161,7.66381
168,7.80711
175,7.94328
182,8.07287
189,8.19637
196,8.31423
203,8.42684
210,8.53453
217,8.63762
224,8.73638
231,8.83108
238,8.92192
245,9.00912
252,9.09284
259,9.17326
266,9.25053
273,9.32477
280,9.39611
287,9.46468
294,9.53056
301,9.59384
308,9.65461
315,9.71291
322,9.76881
329,9.82234
336,9.87355
343,9.92246
350,9.96912
357,10.0135
364,10.0558
371,10.0958
378,10.1337
385,10.1695
392,10.2032
399,10.2349
406,10.2646
413,10.2924
420,10.3184
427,10.3426
434,10.3651
441,10.386
448,10.4054
455,10.4235
462,10.4402
469,10.4558
476,10.4703
483,10.4838
490,10.4965
497,10.5084
504,10.5197
511,10.5303
518,10.5405
525,10.5503
532,10.5596
539,10.5688
546,10.5776
553,10.5863
560,10.5949
567,10.6034
574,10.6118
581,10.6202
588,10.6286
595,10.637
602,10.6455
609,10.6541
616,10.6628
623,10.6716
630,10.6806
637,10.6897
644,10.699
651,10.7085
658,10.7182
665,10.7281
672,10.7383
679,10.7487
686,10.7594
693,10.7704
700,10.7817
707,10.7933
714,10.8053
721,10.8177
728,10.8304
735,10.8435
742,10.8571
749,10.8711
756,10.8855
763,10.9004
770,10.9158
777,10.9317
784,10.948
791,10.9649
798,10.9822
805,11
812,11.0181
819,11.0367
826,11.0555
833,11.0746
840,11.0938
847,11.113
854,11.1321
861,11.151
868,11.1696
875,11.1877
882,11.2054
889,11.2224
896,11.2389
903,11.2547
910,11.27
917,11.2846
924,11.2987
931,11.3122
938,11.3252
945,11.3378
952,11.3499
959,11.3616
966,11.3728
973,11.3837
980,11.3942
987,11.4044
994,11.4142
1000,11.4223
1010,11.4354
1020,11.4478
1020,11.4478
1030,11.4596
1040,11.4709
1040,11.4709
1050,11.4816
1060,11.4918
1060,11.4918
1070,11.5016
1080,11.5109
1090,11.5197
1090,11.5197
1100,11.5281
1110,11.5361
1110,11.5361
1120,11.5438
1130,11.5511
1130,11.5511
1140,11.558
1150,11.5646
1160,11.5709
1160,11.5709
1170,11.5769
1180,11.5826
1180,11.5826
1190,11.588
1200,11.5932
1200,11.5932
1210,11.5982
1220,11.6029
1230,11.6074
1230,11.6074
1240,11.6116
1250,11.6157
1250,11.6157
1260,11.6196
1270,11.6233
1270,11.6233
1280,11.6268
1290,11.6301
1300,11.6333
1300,11.6333
1310,11.6364
1320,11.6393
1320,11.6393
1330,11.642
1340,11.6447
1340,11.6447
1350,11.6472
1360,11.6496
1370,11.6518
1370,11.6518
1380,11.654
1390,11.6561
1390,11.6561
1400,11.6581
1410,11.6599
1410,11.6599
1420,11.6617
1430,11.6634
1440,11.665
1440,11.665
1450,11.6666
1460,11.6681
1460,11.6681
1470,11.6695
1480,11.6708
1480,11.6708
1490,11.6721
1500,11.6733
1510,11.6744
1510,11.6744
1520,11.6755
1530,11.6766
1530,11.6766
1540,11.6776
1550,11.6785
1550,11.6785
1560,11.6795
1570,11.6803
1580,11.6811
1580,11.6811
1590,11.6819
1600,11.6827
1600,11.6827
1610,11.6834
1620,11.6841
1620,11.6841
1630,11.6847
1640,11.6853
1650,11.6859
1650,11.6859
1660,11.6865
1670,11.687
1670,11.687
1680,11.6875
1690,11.688
1690,11.688
1700,11.6885
1710,11.6889
1720,11.6893
1720,11.6893
1730,11.6897
1740,11.6901
1740,11.6901
1750,11.6905
1760,11.6908
1760,11.6908
1770,11.6911
1780,11.6915
1790,11.6918
1790,11.6918
1800,11.692
1800,11.692