File: results/E_Glass/1Mass_DSC_FT/E_Glass_linear_dsc_M_FT_0_cone_Mass.csv
# Time [s], Mass [Kg]
0.000000000000000000e+00,1
7,1
14,1
21,1
28,1
35,1
42,1
49,1
56,1
63,1
70,1
77,1
84,1
91,0.999999
98,0.999999
105,0.999998
112,0.999996
119,0.999994
126,0.999991
133,0.999985
140,0.999978
147,0.999967
154,0.999953
161,0.999932
168,0.999904
175,0.999867
182,0.999818
189,0.999754
196,0.999671
203,0.999564
210,0.999428
217,0.999258
224,0.999045
231,0.998781
238,0.998459
245,0.998068
252,0.997599
259,0.997039
266,0.996377
273,0.995603
280,0.994705
287,0.993671
294,0.992491
301,0.991156
308,0.989657
315,0.987987
322,0.986139
329,0.984109
336,0.981894
343,0.979491
350,0.976898
357,0.974118
364,0.97115
371,0.967997
378,0.964663
385,0.961152
392,0.95747
399,0.953623
406,0.94962
413,0.945469
420,0.941179
427,0.936762
434,0.932229
441,0.927592
448,0.922864
455,0.918059
462,0.913189
469,0.908268
476,0.903309
483,0.898325
490,0.893328
497,0.888328
504,0.883338
511,0.878366
518,0.873422
525,0.868514
532,0.863649
539,0.858833
546,0.854072
553,0.849371
560,0.844735
567,0.840167
574,0.835671
581,0.831248
588,0.826903
595,0.822636
602,0.81845
609,0.814346
616,0.810326
623,0.806391
630,0.802543
637,0.798783
644,0.795111
651,0.79153
658,0.788041
665,0.784644
672,0.781342
679,0.778136
686,0.775027
693,0.772018
700,0.769109
707,0.766304
714,0.763604
721,0.761011
728,0.758528
735,0.756157
742,0.753901
749,0.751761
756,0.749742
763,0.747845
770,0.746073
777,0.744428
784,0.742911
791,0.741525
798,0.740269
805,0.739144
812,0.738148
819,0.737279
826,0.736532
833,0.735903
840,0.735382
847,0.734962
854,0.734632
861,0.734379
868,0.734192
875,0.734058
882,0.733965
889,0.733903
896,0.733864
903,0.733839
910,0.733825
917,0.733817
924,0.733813
931,0.733811
938,0.73381
945,0.733809
952,0.733809
959,0.733809
966,0.733809
973,0.733809
980,0.733809
987,0.733809
994,0.733809
1000,0.733809
1010,0.733809
1020,0.733809
1020,0.733809
1030,0.733809
1040,0.733809
1040,0.733809
1050,0.733809
1060,0.733809
1060,0.733809
1070,0.733809
1080,0.733809
1090,0.733809
1090,0.733809
1100,0.733809
1110,0.733809
1110,0.733809
1120,0.733809
1130,0.733809
1130,0.733809
1140,0.733809
1150,0.733809
1160,0.733809
1160,0.733809
1170,0.733809
1180,0.733809
1180,0.733809
1190,0.733809
1200,0.733809
1200,0.733809
1210,0.733809
1220,0.733809
1230,0.733809
1230,0.733809
1240,0.733809
1250,0.733809
1250,0.733809
1260,0.733809
1270,0.733809
1270,0.733809
1280,0.733809
1290,0.733809
1300,0.733809
1300,0.733809
1310,0.733809
1320,0.733809
1320,0.733809
1330,0.733809
1340,0.733809
1340,0.733809
1350,0.733809
1360,0.733809
1370,0.733809
1370,0.733809
1380,0.733809
1390,0.733809
1390,0.733809
1400,0.733809
1410,0.733809
1410,0.733809
1420,0.733809
1430,0.733809
1440,0.733809
1440,0.733809
1450,0.733809
1460,0.733809
1460,0.733809
1470,0.733809
1480,0.733809
1480,0.733809
1490,0.733809
1500,0.733809
1510,0.733809
1510,0.733809
1520,0.733809
1530,0.733809
1530,0.733809
1540,0.733809
1550,0.733809
1550,0.733809
1560,0.733809
1570,0.733809
1580,0.733809
1580,0.733809
1590,0.733809
1600,0.733809
1600,0.733809
1610,0.733809
1620,0.733809
1620,0.733809
1630,0.733809
1640,0.733809
1650,0.733809
1650,0.733809
1660,0.733809
1670,0.733809
1670,0.733809
1680,0.733809
1690,0.733809
1690,0.733809
1700,0.733809
1710,0.733809
1720,0.733809
1720,0.733809
1730,0.733809
1740,0.733809
1740,0.733809
1750,0.733809
1760,0.733809
1760,0.733809
1770,0.733809
1780,0.733809
1790,0.733809
1790,0.733809
1800,0.733809
1800,0.733809