File: results/E_Glass/1Mass_DSC_BT/E_Glass_linear_dsc_M_BT_0_cone_FT.csv
# Time [s], Temperature [C]
0.000000000000000000e+00,25
7,90.8102
14,124.497
21,148.135
28,166.754
35,182.218
42,195.468
49,207.064
56,217.378
63,226.673
70,235.149
77,242.957
84,250.222
91,257.038
98,263.48
105,269.599
112,275.428
119,280.994
126,286.317
133,291.423
140,296.332
147,301.065
154,305.638
161,310.065
168,314.357
175,318.52
182,322.562
189,326.486
196,330.296
203,333.995
210,337.582
217,341.06
224,344.43
231,347.69
238,350.841
245,353.886
252,356.82
259,359.645
266,362.367
273,364.98
280,367.487
287,369.899
294,372.208
301,374.422
308,376.554
315,378.596
322,380.558
329,382.456
336,384.28
343,386.043
350,387.76
357,389.42
364,391.034
371,392.618
378,394.157
385,395.662
392,397.145
399,398.591
406,400.009
413,401.406
420,402.77
427,404.107
434,405.419
441,406.698
448,407.947
455,409.168
462,410.355
469,411.51
476,412.634
483,413.724
490,414.783
497,415.811
504,416.808
511,417.776
518,418.716
525,419.629
532,420.515
539,421.378
546,422.217
553,423.035
560,423.832
567,424.61
574,425.37
581,426.113
588,426.84
595,427.552
602,428.25
609,428.936
616,429.61
623,430.272
630,430.924
637,431.567
644,432.202
651,432.828
658,433.447
665,434.06
672,434.667
679,435.268
686,435.866
693,436.459
700,437.049
707,437.637
714,438.223
721,438.808
728,439.392
735,439.976
742,440.56
749,441.146
756,441.734
763,442.324
770,442.917
777,443.514
784,444.115
791,444.721
798,445.332
805,445.948
812,446.571
819,447.2
826,447.835
833,448.476
840,449.124
847,449.777
854,450.434
861,451.095
868,451.759
875,452.423
882,453.086
889,453.746
896,454.401
903,455.049
910,455.688
917,456.316
924,456.931
931,457.533
938,458.12
945,458.692
952,459.249
959,459.79
966,460.315
973,460.825
980,461.319
987,461.798
994,462.262
1000,462.648
1010,463.269
1020,463.861
1020,463.861
1030,464.428
1040,464.968
1040,464.968
1050,465.485
1060,465.978
1060,465.978
1070,466.449
1080,466.898
1090,467.327
1090,467.327
1100,467.736
1110,468.127
1110,468.127
1120,468.5
1130,468.856
1130,468.856
1140,469.196
1150,469.521
1160,469.831
1160,469.831
1170,470.126
1180,470.408
1180,470.408
1190,470.677
1200,470.934
1200,470.934
1210,471.179
1220,471.413
1230,471.637
1230,471.637
1240,471.85
1250,472.053
1250,472.053
1260,472.247
1270,472.432
1270,472.432
1280,472.609
1290,472.777
1300,472.938
1300,472.938
1310,473.092
1320,473.238
1320,473.238
1330,473.378
1340,473.511
1340,473.511
1350,473.638
1360,473.76
1370,473.876
1370,473.876
1380,473.986
1390,474.091
1390,474.091
1400,474.192
1410,474.288
1410,474.288
1420,474.38
1430,474.467
1440,474.55
1440,474.55
1450,474.63
1460,474.706
1460,474.706
1470,474.778
1480,474.847
1480,474.847
1490,474.913
1500,474.976
1510,475.036
1510,475.036
1520,475.093
1530,475.148
1530,475.148
1540,475.2
1550,475.249
1550,475.249
1560,475.297
1570,475.342
1580,475.385
1580,475.385
1590,475.426
1600,475.466
1600,475.466
1610,475.503
1620,475.539
1620,475.539
1630,475.573
1640,475.605
1650,475.636
1650,475.636
1660,475.666
1670,475.694
1670,475.694
1680,475.721
1690,475.747
1690,475.747
1700,475.771
1710,475.795
1720,475.817
1720,475.817
1730,475.838
1740,475.858
1740,475.858
1750,475.878
1760,475.896
1760,475.896
1770,475.914
1780,475.931
1790,475.947
1790,475.947
1800,475.962
1800,475.962