File: results/E_Glass/1Mass_DSC_BT/E_Glass_linear_dsc_M_BT_0_cone_Mass.csv
# Time [s], Mass [Kg]
0.000000000000000000e+00,1
7,1
14,1
21,1
28,1
35,1
42,1
49,1
56,1
63,1
70,1
77,1
84,1
91,0.999999
98,0.999999
105,0.999998
112,0.999996
119,0.999994
126,0.99999
133,0.999984
140,0.999977
147,0.999965
154,0.99995
161,0.999929
168,0.9999
175,0.999862
182,0.999812
189,0.999746
196,0.999661
203,0.999553
210,0.999415
217,0.999243
224,0.999028
231,0.998763
238,0.99844
245,0.998048
252,0.997578
259,0.997019
266,0.99636
273,0.995589
280,0.994695
287,0.993666
294,0.992493
301,0.991166
308,0.989675
315,0.988014
322,0.986175
329,0.984153
336,0.981945
343,0.979547
350,0.976959
357,0.97418
364,0.971211
371,0.968055
378,0.964714
385,0.961195
392,0.957502
399,0.953643
406,0.949625
413,0.945459
420,0.941153
427,0.936721
434,0.932173
441,0.927523
448,0.922783
455,0.917968
462,0.913091
469,0.908166
476,0.903204
483,0.89822
490,0.893226
497,0.888231
504,0.883248
511,0.878284
518,0.87335
525,0.868452
532,0.863599
539,0.858795
546,0.854047
553,0.849359
560,0.844735
567,0.840178
574,0.835693
581,0.831281
588,0.826945
595,0.822687
602,0.818508
609,0.814411
616,0.810396
623,0.806466
630,0.802621
637,0.798863
644,0.795192
651,0.791611
658,0.78812
665,0.784721
672,0.781415
679,0.778205
686,0.775091
693,0.772076
700,0.76916
707,0.766348
714,0.76364
721,0.761038
728,0.758546
735,0.756166
742,0.753901
749,0.751752
756,0.749723
763,0.747817
770,0.746036
777,0.744382
784,0.742858
791,0.741464
798,0.740203
805,0.739073
812,0.738073
819,0.737203
826,0.736456
833,0.735828
840,0.735312
847,0.734897
854,0.734574
861,0.734329
868,0.73415
875,0.734024
882,0.733939
889,0.733884
896,0.73385
903,0.733831
910,0.73382
917,0.733814
924,0.733811
931,0.73381
938,0.733809
945,0.733809
952,0.733809
959,0.733809
966,0.733809
973,0.733809
980,0.733809
987,0.733809
994,0.733809
1000,0.733809
1010,0.733809
1020,0.733809
1020,0.733809
1030,0.733809
1040,0.733809
1040,0.733809
1050,0.733809
1060,0.733809
1060,0.733809
1070,0.733809
1080,0.733809
1090,0.733809
1090,0.733809
1100,0.733809
1110,0.733809
1110,0.733809
1120,0.733809
1130,0.733809
1130,0.733809
1140,0.733809
1150,0.733809
1160,0.733809
1160,0.733809
1170,0.733809
1180,0.733809
1180,0.733809
1190,0.733809
1200,0.733809
1200,0.733809
1210,0.733809
1220,0.733809
1230,0.733809
1230,0.733809
1240,0.733809
1250,0.733809
1250,0.733809
1260,0.733809
1270,0.733809
1270,0.733809
1280,0.733809
1290,0.733809
1300,0.733809
1300,0.733809
1310,0.733809
1320,0.733809
1320,0.733809
1330,0.733809
1340,0.733809
1340,0.733809
1350,0.733809
1360,0.733809
1370,0.733809
1370,0.733809
1380,0.733809
1390,0.733809
1390,0.733809
1400,0.733809
1410,0.733809
1410,0.733809
1420,0.733809
1430,0.733809
1440,0.733809
1440,0.733809
1450,0.733809
1460,0.733809
1460,0.733809
1470,0.733809
1480,0.733809
1480,0.733809
1490,0.733809
1500,0.733809
1510,0.733809
1510,0.733809
1520,0.733809
1530,0.733809
1530,0.733809
1540,0.733809
1550,0.733809
1550,0.733809
1560,0.733809
1570,0.733809
1580,0.733809
1580,0.733809
1590,0.733809
1600,0.733809
1600,0.733809
1610,0.733809
1620,0.733809
1620,0.733809
1630,0.733809
1640,0.733809
1650,0.733809
1650,0.733809
1660,0.733809
1670,0.733809
1670,0.733809
1680,0.733809
1690,0.733809
1690,0.733809
1700,0.733809
1710,0.733809
1720,0.733809
1720,0.733809
1730,0.733809
1740,0.733809
1740,0.733809
1750,0.733809
1760,0.733809
1760,0.733809
1770,0.733809
1780,0.733809
1790,0.733809
1790,0.733809
1800,0.733809
1800,0.733809