File: results/E_Glass/1Mass_DSC_BT/E_Glass_linear_dsc_M_BT_0_cone_BT.csv
# Time [s], Temperature [C]
0.000000000000000000e+00,25
7,25.0001
14,25.0235
21,25.3377
28,26.4536
35,28.6822
42,32.0607
49,36.477
56,41.7671
63,47.7629
70,54.3122
77,61.2847
84,68.5717
91,76.0844
98,83.7505
105,91.5115
112,99.3204
119,107.14
126,114.938
133,122.693
140,130.385
147,137.998
154,145.522
161,152.947
168,160.266
175,167.475
182,174.568
189,181.544
196,188.4
203,195.134
210,201.744
217,208.231
224,214.593
231,220.829
238,226.939
245,232.923
252,238.779
259,244.507
266,250.107
273,255.577
280,260.917
287,266.125
294,271.201
301,276.143
308,280.95
315,285.619
322,290.148
329,294.535
336,298.777
343,302.871
350,306.814
357,310.603
364,314.237
371,317.711
378,321.025
385,324.178
392,327.168
399,329.996
406,332.663
413,335.171
420,337.524
427,339.727
434,341.784
441,343.702
448,345.489
455,347.153
462,348.703
469,350.147
476,351.496
483,352.758
490,353.942
497,355.059
504,356.115
511,357.119
518,358.079
525,359.001
532,359.892
539,360.758
546,361.603
553,362.433
560,363.252
567,364.064
574,364.871
581,365.679
588,366.488
595,367.302
602,368.123
609,368.953
616,369.794
623,370.648
630,371.517
637,372.403
644,373.307
651,374.23
658,375.176
665,376.144
672,377.137
679,378.157
686,379.205
693,380.283
700,381.394
707,382.538
714,383.718
721,384.937
728,386.195
735,387.496
742,388.842
749,390.234
756,391.676
763,393.168
770,394.713
777,396.312
784,397.966
791,399.675
798,401.44
805,403.258
812,405.127
819,407.042
826,408.998
833,410.987
840,412.998
847,415.021
854,417.042
861,419.049
868,421.029
875,422.969
882,424.859
889,426.694
896,428.467
903,430.178
910,431.827
917,433.415
924,434.946
931,436.422
938,437.847
945,439.223
952,440.554
959,441.84
966,443.085
973,444.29
980,445.456
987,446.586
994,447.679
1000,448.589
1010,450.05
1020,451.446
1020,451.446
1030,452.779
1040,454.053
1040,454.053
1050,455.269
1060,456.431
1060,456.431
1070,457.54
1080,458.6
1090,459.611
1090,459.611
1100,460.578
1110,461.5
1110,461.5
1120,462.381
1130,463.222
1130,463.222
1140,464.025
1150,464.792
1160,465.524
1160,465.524
1170,466.223
1180,466.89
1180,466.89
1190,467.526
1200,468.134
1200,468.134
1210,468.714
1220,469.268
1230,469.797
1230,469.797
1240,470.301
1250,470.782
1250,470.782
1260,471.242
1270,471.68
1270,471.68
1280,472.099
1290,472.498
1300,472.88
1300,472.88
1310,473.243
1320,473.59
1320,473.59
1330,473.922
1340,474.238
1340,474.238
1350,474.539
1360,474.827
1370,475.102
1370,475.102
1380,475.364
1390,475.614
1390,475.614
1400,475.853
1410,476.08
1410,476.08
1420,476.297
1430,476.505
1440,476.702
1440,476.702
1450,476.891
1460,477.071
1460,477.071
1470,477.243
1480,477.407
1480,477.407
1490,477.563
1500,477.712
1510,477.855
1510,477.855
1520,477.991
1530,478.12
1530,478.12
1540,478.244
1550,478.362
1550,478.362
1560,478.474
1570,478.581
1580,478.684
1580,478.684
1590,478.782
1600,478.875
1600,478.875
1610,478.964
1620,479.048
1620,479.048
1630,479.129
1640,479.207
1650,479.28
1650,479.28
1660,479.351
1670,479.418
1670,479.418
1680,479.482
1690,479.543
1690,479.543
1700,479.601
1710,479.656
1720,479.709
1720,479.709
1730,479.76
1740,479.808
1740,479.808
1750,479.854
1760,479.898
1760,479.898
1770,479.94
1780,479.98
1790,480.018
1790,480.018
1800,480.054
1800,480.054