File: results/E_Glass/1Mass_DSC_BT/E_Glass_linear_dsc_M_BT_0_cone_Bh.csv
# Time [s], Convective Heat Transfer Coefficient [W/m2K]
0.000000000000000000e+00,0.000000000000000000e+00
7,0.0584972
14,0.435131
21,1.05845
28,1.72184
35,2.34719
42,2.91603
49,3.42862
56,3.89042
63,4.30777
70,4.68662
77,5.03212
84,5.34866
91,5.63992
98,5.909
105,6.15851
112,6.39067
119,6.60735
126,6.81018
133,7.00054
140,7.17964
147,7.34853
154,7.50813
161,7.65925
168,7.80261
175,7.93882
182,8.06845
189,8.19199
196,8.30987
203,8.42249
210,8.53019
217,8.63329
224,8.73207
231,8.82678
238,8.91765
245,9.00487
252,9.08863
259,9.1691
266,9.24641
273,9.32071
280,9.39211
287,9.46073
294,9.52665
301,9.58997
308,9.65077
315,9.7091
322,9.76502
329,9.81858
336,9.86982
343,9.91877
350,9.96547
357,10.0099
364,10.0522
371,10.0923
378,10.1302
385,10.1661
392,10.1998
399,10.2315
406,10.2613
413,10.2891
420,10.3151
427,10.3392
434,10.3617
441,10.3826
448,10.4019
455,10.4199
462,10.4366
469,10.4521
476,10.4665
483,10.48
490,10.4926
497,10.5045
504,10.5157
511,10.5263
518,10.5364
525,10.5461
532,10.5555
539,10.5646
546,10.5734
553,10.5821
560,10.5907
567,10.5991
574,10.6076
581,10.6159
588,10.6243
595,10.6328
602,10.6413
609,10.6498
616,10.6585
623,10.6673
630,10.6762
637,10.6853
644,10.6946
651,10.704
658,10.7137
665,10.7236
672,10.7337
679,10.744
686,10.7546
693,10.7655
700,10.7767
707,10.7882
714,10.8001
721,10.8123
728,10.8249
735,10.8379
742,10.8513
749,10.8651
756,10.8794
763,10.8941
770,10.9093
777,10.925
784,10.9412
791,10.9579
798,10.9751
805,10.9927
812,11.0108
819,11.0293
826,11.0481
833,11.0671
840,11.0863
847,11.1055
854,11.1247
861,11.1436
868,11.1623
875,11.1805
882,11.1981
889,11.2152
896,11.2317
903,11.2476
910,11.2628
917,11.2775
924,11.2915
931,11.3051
938,11.3181
945,11.3307
952,11.3428
959,11.3545
966,11.3658
973,11.3767
980,11.3872
987,11.3974
994,11.4072
1000,11.4154
1010,11.4285
1020,11.441
1020,11.441
1030,11.4529
1040,11.4643
1040,11.4643
1050,11.4751
1060,11.4854
1060,11.4854
1070,11.4953
1080,11.5046
1090,11.5136
1090,11.5136
1100,11.5221
1110,11.5302
1110,11.5302
1120,11.538
1130,11.5454
1130,11.5454
1140,11.5524
1150,11.5592
1160,11.5656
1160,11.5656
1170,11.5717
1180,11.5775
1180,11.5775
1190,11.5831
1200,11.5884
1200,11.5884
1210,11.5934
1220,11.5982
1230,11.6028
1230,11.6028
1240,11.6072
1250,11.6114
1250,11.6114
1260,11.6154
1270,11.6192
1270,11.6192
1280,11.6228
1290,11.6263
1300,11.6296
1300,11.6296
1310,11.6327
1320,11.6357
1320,11.6357
1330,11.6386
1340,11.6413
1340,11.6413
1350,11.6439
1360,11.6464
1370,11.6488
1370,11.6488
1380,11.651
1390,11.6532
1390,11.6532
1400,11.6553
1410,11.6572
1410,11.6572
1420,11.6591
1430,11.6609
1440,11.6626
1440,11.6626
1450,11.6642
1460,11.6657
1460,11.6657
1470,11.6672
1480,11.6686
1480,11.6686
1490,11.67
1500,11.6713
1510,11.6725
1510,11.6725
1520,11.6736
1530,11.6748
1530,11.6748
1540,11.6758
1550,11.6768
1550,11.6768
1560,11.6778
1570,11.6787
1580,11.6796
1580,11.6796
1590,11.6804
1600,11.6812
1600,11.6812
1610,11.682
1620,11.6827
1620,11.6827
1630,11.6834
1640,11.6841
1650,11.6847
1650,11.6847
1660,11.6853
1670,11.6859
1670,11.6859
1680,11.6864
1690,11.687
1690,11.687
1700,11.6875
1710,11.6879
1720,11.6884
1720,11.6884
1730,11.6888
1740,11.6892
1740,11.6892
1750,11.6896
1760,11.69
1760,11.69
1770,11.6904
1780,11.6907
1790,11.691
1790,11.691
1800,11.6913
1800,11.6913