File: results/E_Glass/1Mass_DSC_BT/E_Glass_linear_dsc_M_BT_progressMonitor.csv
Loop,Time,r0-A,p0-C0,p1-C0,p0-Cpa,p1-Cpa,p0-Cpb,p1-Cpb,r0-E,r0-Hp,p0-K,p1-K,Value,r0-Xi,p0-eps,p1-eps,p0-ka,p1-ka,p0-kb,p1-kb,r0-n,r0-nO2,p0-rho,p1-rho,
-1,0,4.11e+12,1.0,0.0,1090.65,4155.73,0.0445593,0.427748,1.78e+05,51145.9,14133.7,100000000.0,0.00170291,0.733809,0.88122,0.94,0.292494,0.158737,0.000152352,0.000184622,2.4102,0.0,1683.0,1235.0,
4,876.3286,3.39e+12,1.0,0.0,1088.44,1920.49,0.0435307,0.523407,1.76e+05,89225.4,15738.1,100000000.0,0.000438444,0.733809,0.758343,0.94,0.533848,0.0905039,7.28427e-05,0.000672837,1.90977,0.0,1683.0,1235.0,
9,1842.46,5.26e+12,1.0,0.0,1065.67,1179.88,0.044163,0.591048,1.82e+05,128327,13142,100000000.0,0.000176788,0.733809,0.847646,0.94,0.367111,0.0970914,7.79634e-05,0.000687305,1.4782,0.0,1683.0,1235.0,
14,2753.55,8.44e+12,1.0,0.0,983.405,1054.75,0.0458196,0.645405,1.88e+05,126952,14536,100000000.0,4.44386e-05,0.733809,0.885759,0.94,0.268554,0.162501,6.45042e-05,0.000466125,1.04647,0.0,1683.0,1235.0,
19,3629.45,8.71e+12,1.0,0.0,974.741,1030.94,0.0460911,0.645919,1.88e+05,123862,14951,100000000.0,3.77767e-05,0.733809,0.880602,0.94,0.26363,0.171001,6.35453e-05,0.000418901,0.998997,0.0,1683.0,1235.0,
24,4426.26,8.81e+12,1.0,0.0,972.14,1007.59,0.0461576,0.651499,1.88e+05,123161,15221.3,100000000.0,3.57536e-05,0.733809,0.879364,0.94,0.261999,0.169773,6.43971e-05,0.000402017,0.985006,0.0,1683.0,1235.0,
29,5207.02,8.00e+12,1.0,0.0,973.723,934.675,0.0443841,0.642603,1.87e+05,115701,18250,100000000.0,2.82839e-05,0.733809,0.874196,0.94,0.267517,0.101182,6.2997e-05,0.000409693,1.03606,0.0,1683.0,1235.0,
34,6072.82,7.70e+12,1.0,0.0,975.956,832.658,0.0425018,0.694077,1.87e+05,109789,21752.5,100000000.0,1.98573e-05,0.733809,0.875477,0.94,0.267267,0.0243561,6.33192e-05,0.000459684,1.00921,0.0,1683.0,1235.0,
39,6824.32,7.80e+12,1.0,0.0,972.909,820.134,0.0424175,0.688585,1.87e+05,107508,21886,100000000.0,1.7276e-05,0.733809,0.870232,0.94,0.26788,0.0265913,6.2129e-05,0.000439724,1.02136,0.0,1683.0,1235.0,
44,7602.97,7.74e+12,1.0,0.0,973.378,793.558,0.0416023,0.675567,1.87e+05,103862,25165.1,100000000.0,1.42009e-05,0.733809,0.869278,0.94,0.276286,0.0260052,4.66541e-05,0.000410943,1.04006,0.0,1683.0,1235.0,
49,8448.83,8.21e+12,1.0,0.0,972.144,724.194,0.0406818,0.703191,1.88e+05,100547,29925.8,100000000.0,9.30222e-06,0.733809,0.869407,0.94,0.281962,0.0241077,3.16222e-05,0.000379825,1.04052,0.0,1683.0,1235.0,
54,9319.88,8.25e+12,1.0,0.0,972.298,715.193,0.0406941,0.707924,1.88e+05,100051,30085.8,100000000.0,6.67622e-06,0.733809,0.870224,0.94,0.281279,0.0248427,3.15408e-05,0.000374206,1.01915,0.0,1683.0,1235.0,
59,10192.1,8.09e+12,1.0,0.0,972.969,726.519,0.0407181,0.697866,1.88e+05,100172,29667.6,100000000.0,6.40808e-06,0.733809,0.871606,0.94,0.280895,0.0246685,3.13498e-05,0.000376804,1.0177,0.0,1683.0,1235.0,
64,11084.7,8.08e+12,1.0,0.0,973.251,725.636,0.0406904,0.696502,1.88e+05,100021,29882.9,100000000.0,6.3559e-06,0.733809,0.871936,0.94,0.2815,0.0258169,3.01194e-05,0.000373835,1.01498,0.0,1683.0,1235.0,
69,11958.5,7.86e+12,1.0,0.0,974.384,737.324,0.040683,0.683556,1.88e+05,100124,29455.1,100000000.0,6.26971e-06,0.733809,0.872801,0.94,0.282174,0.0241864,2.93943e-05,0.000377811,1.01366,0.0,1683.0,1235.0,
74,12873.5,7.57e+12,1.0,0.0,976.203,753.444,0.040684,0.665959,1.87e+05,100258,29027.3,100000000.0,6.18664e-06,0.733809,0.874297,0.94,0.283495,0.0237549,2.75853e-05,0.000380573,1.00773,0.0,1683.0,1235.0,
79,13814.3,7.51e+12,1.0,0.0,976.528,756.794,0.0406852,0.66211,1.87e+05,100279,28930.7,100000000.0,6.18179e-06,0.733809,0.874589,0.94,0.283739,0.0237332,2.72413e-05,0.000380963,1.00691,0.0,1683.0,1235.0,
84,14758.3,7.50e+12,1.0,0.0,976.475,758.451,0.0407014,0.660809,1.87e+05,100333,28810.3,100000000.0,6.1749e-06,0.733809,0.874671,0.94,0.283515,0.0237293,2.75323e-05,0.000381479,1.0071,0.0,1683.0,1235.0,
89,15683.6,7.51e+12,1.0,0.0,976.317,757.196,0.0407047,0.661913,1.87e+05,100301,28820.2,100000000.0,6.17092e-06,0.733809,0.874532,0.94,0.283389,0.023728,2.77483e-05,0.000381076,1.00721,0.0,1683.0,1235.0,
94,16528.5,7.49e+12,1.0,0.0,976.401,758.632,0.0407129,0.660368,1.87e+05,100316,28742.9,100000000.0,6.16824e-06,0.733809,0.874663,0.94,0.283368,0.023725,2.77534e-05,0.000381268,1.00629,0.0,1683.0,1235.0,
99,17372,7.48e+12,1.0,0.0,976.357,759.434,0.0407283,0.659757,1.87e+05,100355,28651.3,100000000.0,6.16546e-06,0.733809,0.874649,0.94,0.283218,0.0237257,2.80442e-05,0.000381551,1.00628,0.0,1683.0,1235.0,
104,18242.6,2.58e+12,1.0,0.0,1006,1203.3,0.0407095,0.0747064,1.82e+05,104902,17416.7,100000000.0,6.12552e-06,0.733809,0.895355,0.94,0.289314,0.228218,3.40824e-05,0.000122578,0.972809,0.0,1683.0,1235.0,
109,19126.5,2.58e+12,1.0,0.0,1006,1203.3,0.0407095,0.0747064,1.82e+05,104902,17416.7,100000000.0,6.12552e-06,0.733809,0.895355,0.94,0.289314,0.228218,3.40824e-05,0.000122578,0.972809,0.0,1683.0,1235.0,
114,20072.1,2.57e+12,1.0,0.0,1006.99,1197.69,0.0406807,0.0801917,1.82e+05,104775,17706.9,100000000.0,5.80257e-06,0.733809,0.896201,0.94,0.289809,0.228845,3.37029e-05,0.000120695,0.971388,0.0,1683.0,1235.0,
119,20935.7,2.53e+12,1.0,0.0,1006.27,1193.16,0.0406824,0.0782808,1.82e+05,104332,17865.2,100000000.0,5.29653e-06,0.733809,0.895114,0.94,0.290163,0.233219,3.32639e-05,0.000110095,0.980005,0.0,1683.0,1235.0,
124,21735.3,2.53e+12,1.0,0.0,1007.08,1186.26,0.0406807,0.0807203,1.82e+05,103713,17883,100000000.0,5.02043e-06,0.733809,0.895563,0.94,0.29205,0.235627,2.9944e-05,0.000101723,0.979478,0.0,1683.0,1235.0,
129,22569.9,2.53e+12,1.0,0.0,1006.98,1184.44,0.0406802,0.0801981,1.82e+05,103542,17848.7,100000000.0,4.81202e-06,0.733809,0.895225,0.94,0.292285,0.236412,2.95971e-05,9.91443e-05,0.980052,0.0,1683.0,1235.0,
134,23454.3,4.12e+12,1.0,0.0,990.228,1084.79,0.0413154,0.20479,1.84e+05,102096,17764.1,100000000.0,4.26708e-06,0.733809,0.883913,0.94,0.28564,0.167352,3.16573e-05,0.000186642,0.996797,0.0,1683.0,1235.0,
139,24410.1,4.12e+12,1.0,0.0,990.228,1084.79,0.0413154,0.20479,1.84e+05,102096,17764.1,100000000.0,4.26708e-06,0.733809,0.883913,0.94,0.28564,0.167352,3.16573e-05,0.000186642,0.996797,0.0,1683.0,1235.0,
144,25362.2,4.12e+12,1.0,0.0,990.228,1084.79,0.0413154,0.20479,1.84e+05,102096,17764.1,100000000.0,4.26708e-06,0.733809,0.883913,0.94,0.28564,0.167352,3.16573e-05,0.000186642,0.996797,0.0,1683.0,1235.0,
149,26292.5,4.12e+12,1.0,0.0,990.228,1084.79,0.0413154,0.20479,1.84e+05,102096,17764.1,100000000.0,4.26708e-06,0.733809,0.883913,0.94,0.28564,0.167352,3.16573e-05,0.000186642,0.996797,0.0,1683.0,1235.0,
154,27246.9,3.79e+12,1.0,0.0,997.582,1118.71,0.0412467,0.152047,1.84e+05,102145,17982.4,100000000.0,3.36131e-06,0.733809,0.887476,0.94,0.287278,0.191706,3.51011e-05,0.000150817,0.992636,0.0,1683.0,1235.0,
159,28109,3.69e+12,1.0,0.0,1003.86,1168.48,0.0413268,0.075148,1.84e+05,102084,17814.5,100000000.0,2.70956e-06,0.733809,0.890905,0.94,0.288956,0.226345,3.67695e-05,9.9382e-05,0.995305,0.0,1683.0,1235.0,
164,28951.9,3.36e+12,1.0,0.0,1009.29,1179.27,0.0412634,0.0653636,1.83e+05,102326,19518.5,100000000.0,2.38512e-06,0.733809,0.895186,0.94,0.291603,0.228942,3.47843e-05,9.84042e-05,0.99242,0.0,1683.0,1235.0,
169,29771.6,3.22e+12,1.0,0.0,1012.24,1175.75,0.0412861,0.0671605,1.83e+05,102146,20138.6,100000000.0,2.18762e-06,0.733809,0.896791,0.94,0.292869,0.227743,3.46948e-05,9.87075e-05,0.99289,0.0,1683.0,1235.0,
174,30745,3.02e+12,1.0,0.0,1018.96,1179.47,0.0415431,0.0656453,1.82e+05,102279,21141.9,100000000.0,1.98235e-06,0.733809,0.90139,0.94,0.295446,0.2247,3.43881e-05,0.000104878,0.992092,0.0,1683.0,1235.0,
179,31543.6,2.85e+12,1.0,0.0,1029.46,1176.86,0.0416162,0.0658389,1.82e+05,101907,22898.9,100000000.0,1.74469e-06,0.733809,0.907877,0.94,0.299479,0.214658,3.43191e-05,0.000117167,0.993885,0.0,1683.0,1235.0,
184,32371,2.86e+12,1.0,0.0,1034.12,1178.91,0.0414586,0.0657263,1.82e+05,101853,24130,100000000.0,1.6888e-06,0.733809,0.91092,0.94,0.30165,0.206512,3.32161e-05,0.00012965,0.994095,0.0,1683.0,1235.0,
189,33219.3,2.79e+12,1.0,0.0,1037.24,1173.82,0.0421582,0.0702687,1.82e+05,101977,22977,100000000.0,1.6067e-06,0.733809,0.913162,0.94,0.302287,0.223877,3.41454e-05,0.000104673,0.993575,0.0,1683.0,1235.0,
194,34015.4,2.74e+12,1.0,0.0,1043.3,1135.24,0.0435017,0.118043,1.82e+05,101977,20821,100000000.0,1.52308e-06,0.733809,0.917446,0.94,0.303943,0.245405,3.52245e-05,7.20654e-05,0.993999,0.0,1683.0,1235.0,
199,34820.5,2.76e+12,1.0,0.0,1042.49,1134.64,0.0434846,0.116986,1.82e+05,101867,20605.6,100000000.0,1.49283e-06,0.733809,0.916807,0.94,0.303741,0.245059,3.51162e-05,7.15634e-05,0.994751,0.0,1683.0,1235.0,