File: results/E_Glass/1Mass_DSC/E_Glass_linear_dsc_M_0_cone_BT.csv
# Time [s], Temperature [C]
0.000000000000000000e+00,25
7,25
14,25.0054
21,25.1138
28,25.6168
35,26.8096
42,28.8408
49,31.7261
56,35.404
63,39.7783
70,44.7435
77,50.197
84,56.046
91,62.2081
98,68.6124
105,75.1986
112,81.9151
119,88.7193
126,95.5752
133,102.453
140,109.329
147,116.183
154,123
161,129.766
168,136.47
175,143.105
182,149.664
189,156.14
196,162.53
203,168.829
210,175.035
217,181.146
224,187.16
231,193.075
238,198.889
245,204.601
252,210.21
259,215.715
266,221.115
273,226.408
280,231.594
287,236.67
294,241.637
301,246.492
308,251.234
315,255.862
322,260.373
329,264.765
336,269.033
343,273.175
350,277.186
357,281.062
364,284.798
371,288.391
378,291.836
385,295.129
392,298.266
399,301.244
406,304.062
413,306.719
420,309.215
427,311.554
434,313.738
441,315.774
448,317.667
455,319.426
462,321.061
469,322.58
476,323.995
483,325.315
490,326.551
497,327.714
504,328.811
511,329.853
518,330.847
525,331.8
532,332.72
539,333.613
546,334.484
553,335.336
560,336.176
567,337.006
574,337.829
581,338.649
588,339.468
595,340.287
602,341.11
609,341.937
616,342.771
623,343.612
630,344.462
637,345.323
644,346.195
651,347.08
658,347.979
665,348.893
672,349.822
679,350.769
686,351.733
693,352.717
700,353.721
707,354.746
714,355.794
721,356.865
728,357.96
735,359.082
742,360.23
749,361.405
756,362.61
763,363.844
770,365.108
777,366.402
784,367.728
791,369.084
798,370.471
805,371.888
812,373.332
819,374.802
826,376.296
833,377.809
840,379.338
847,380.877
854,382.421
861,383.964
868,385.499
875,387.021
882,388.525
889,390.005
896,391.459
903,392.883
910,394.277
917,395.64
924,396.973
931,398.278
938,399.556
945,400.809
952,402.038
959,403.245
966,404.431
973,405.596
980,406.742
987,407.869
994,408.979
1000,409.915
1010,411.449
1020,412.949
1020,412.949
1030,414.416
1040,415.852
1040,415.852
1050,417.257
1060,418.633
1060,418.633
1070,419.979
1080,421.297
1090,422.587
1090,422.587
1100,423.849
1110,425.085
1110,425.085
1120,426.295
1130,427.48
1130,427.48
1140,428.639
1150,429.774
1160,430.885
1160,430.885
1170,431.973
1180,433.037
1180,433.037
1190,434.079
1200,435.098
1200,435.098
1210,436.096
1220,437.073
1230,438.028
1230,438.028
1240,438.964
1250,439.879
1250,439.879
1260,440.775
1270,441.651
1270,441.651
1280,442.509
1290,443.348
1300,444.17
1300,444.17
1310,444.973
1320,445.759
1320,445.759
1330,446.528
1340,447.281
1340,447.281
1350,448.017
1360,448.738
1370,449.442
1370,449.442
1380,450.132
1390,450.806
1390,450.806
1400,451.466
1410,452.111
1410,452.111
1420,452.743
1430,453.36
1440,453.964
1440,453.964
1450,454.555
1460,455.133
1460,455.133
1470,455.699
1480,456.252
1480,456.252
1490,456.792
1500,457.321
1510,457.839
1510,457.839
1520,458.345
1530,458.84
1530,458.84
1540,459.324
1550,459.797
1550,459.797
1560,460.26
1570,460.713
1580,461.155
1580,461.155
1590,461.588
1600,462.012
1600,462.012
1610,462.426
1620,462.831
1620,462.831
1630,463.226
1640,463.614
1650,463.992
1650,463.992
1660,464.362
1670,464.724
1670,464.724
1680,465.078
1690,465.425
1690,465.425
1700,465.763
1710,466.094
1720,466.418
1720,466.418
1730,466.734
1740,467.043
1740,467.043
1750,467.346
1760,467.641
1760,467.641
1770,467.931
1780,468.213
1790,468.49
1790,468.49
1800,468.76
1800,468.76