File: results/E_Glass/1Mass_DSC/E_Glass_linear_dsc_M_0_cone_Bh.csv
# Time [s], Convective Heat Transfer Coefficient [W/m2K]
0.000000000000000000e+00,0.000000000000000000e+00
7,0.0304
14,0.26601
21,0.736661
28,1.29384
35,1.85226
42,2.38041
49,2.86923
56,3.31826
63,3.73008
70,4.1082
77,4.45615
84,4.77726
91,5.07445
98,5.35033
105,5.60713
112,5.84682
119,6.0711
126,6.28146
133,6.47923
140,6.66555
147,6.84146
154,7.00786
161,7.16556
168,7.31527
175,7.45762
182,7.59318
189,7.72245
196,7.84589
203,7.9639
210,8.07684
217,8.18504
224,8.2888
231,8.38837
238,8.484
245,8.5759
252,8.66427
259,8.74928
266,8.83108
273,8.90983
280,8.98565
287,9.05865
294,9.12895
301,9.19665
308,9.26182
315,9.32455
322,9.38489
329,9.4429
336,9.49861
343,9.55204
350,9.60323
357,9.65217
364,9.6989
371,9.7434
378,9.7857
385,9.82578
392,9.86367
399,9.89938
406,9.93292
413,9.96435
420,9.9937
427,10.021
434,10.0464
441,10.07
448,10.0918
455,10.112
462,10.1306
469,10.1479
476,10.164
483,10.1789
490,10.1929
497,10.206
504,10.2183
511,10.23
518,10.2411
525,10.2517
532,10.2619
539,10.2718
546,10.2815
553,10.2909
560,10.3002
567,10.3093
574,10.3184
581,10.3274
588,10.3364
595,10.3454
602,10.3544
609,10.3634
616,10.3725
623,10.3816
630,10.3908
637,10.4002
644,10.4096
651,10.4191
658,10.4288
665,10.4386
672,10.4486
679,10.4588
686,10.4691
693,10.4796
700,10.4903
707,10.5011
714,10.5123
721,10.5236
728,10.5352
735,10.547
742,10.559
749,10.5714
756,10.584
763,10.5968
770,10.61
777,10.6235
784,10.6372
791,10.6512
798,10.6655
805,10.68
812,10.6949
819,10.7099
826,10.7251
833,10.7405
840,10.756
847,10.7715
854,10.7871
861,10.8026
868,10.818
875,10.8332
882,10.8481
889,10.8628
896,10.8772
903,10.8913
910,10.905
917,10.9184
924,10.9315
931,10.9443
938,10.9568
945,10.969
952,10.9809
959,10.9926
966,11.0041
973,11.0154
980,11.0264
987,11.0372
994,11.0479
1000,11.0569
1010,11.0715
1020,11.0858
1020,11.0858
1030,11.0998
1040,11.1134
1040,11.1134
1050,11.1267
1060,11.1397
1060,11.1397
1070,11.1524
1080,11.1648
1090,11.1769
1090,11.1769
1100,11.1887
1110,11.2003
1110,11.2003
1120,11.2115
1130,11.2226
1130,11.2226
1140,11.2333
1150,11.2438
1160,11.2541
1160,11.2541
1170,11.2642
1180,11.274
1180,11.274
1190,11.2836
1200,11.2929
1200,11.2929
1210,11.3021
1220,11.311
1230,11.3198
1230,11.3198
1240,11.3283
1250,11.3366
1250,11.3366
1260,11.3448
1270,11.3528
1270,11.3528
1280,11.3605
1290,11.3681
1300,11.3756
1300,11.3756
1310,11.3828
1320,11.3899
1320,11.3899
1330,11.3969
1340,11.4037
1340,11.4037
1350,11.4103
1360,11.4168
1370,11.4231
1370,11.4231
1380,11.4293
1390,11.4353
1390,11.4353
1400,11.4412
1410,11.447
1410,11.447
1420,11.4526
1430,11.4581
1440,11.4635
1440,11.4635
1450,11.4688
1460,11.4739
1460,11.4739
1470,11.4789
1480,11.4838
1480,11.4838
1490,11.4886
1500,11.4933
1510,11.4979
1510,11.4979
1520,11.5024
1530,11.5068
1530,11.5068
1540,11.511
1550,11.5152
1550,11.5152
1560,11.5193
1570,11.5233
1580,11.5272
1580,11.5272
1590,11.531
1600,11.5347
1600,11.5347
1610,11.5384
1620,11.5419
1620,11.5419
1630,11.5454
1640,11.5488
1650,11.5521
1650,11.5521
1660,11.5554
1670,11.5586
1670,11.5586
1680,11.5617
1690,11.5647
1690,11.5647
1700,11.5677
1710,11.5705
1720,11.5734
1720,11.5734
1730,11.5761
1740,11.5788
1740,11.5788
1750,11.5815
1760,11.5841
1760,11.5841
1770,11.5866
1780,11.589
1790,11.5915
1790,11.5915
1800,11.5938
1800,11.5938