File: results/E_Glass/1Mass_DSC/E_Glass_linear_dsc_M_0_cone_FT.csv
# Time [s], Temperature [C]
0.000000000000000000e+00,25
7,86.8196
14,118.381
21,140.419
28,157.734
35,172.097
42,184.407
49,195.184
56,204.774
63,213.423
70,221.316
77,228.595
84,235.38
91,241.745
98,247.744
105,253.403
112,258.751
119,263.814
126,268.63
133,273.23
140,277.65
147,281.909
154,286.027
161,290.021
168,293.901
175,297.673
182,301.349
189,304.927
196,308.413
203,311.815
210,315.126
217,318.346
224,321.488
231,324.536
238,327.493
245,330.377
252,333.16
259,335.848
266,338.472
273,340.989
280,343.411
287,345.781
294,348.043
301,350.218
308,352.356
315,354.391
322,356.351
329,358.287
336,360.134
343,361.918
350,363.69
357,365.387
364,367.031
371,368.669
378,370.244
385,371.776
392,373.299
399,374.768
406,376.199
413,377.613
420,378.981
427,380.31
434,381.617
441,382.88
448,384.106
455,385.302
462,386.459
469,387.581
476,388.671
483,389.728
490,390.755
497,391.752
504,392.721
511,393.664
518,394.582
525,395.477
532,396.351
539,397.203
546,398.036
553,398.85
560,399.647
567,400.427
574,401.191
581,401.941
588,402.677
595,403.399
602,404.11
609,404.809
616,405.497
623,406.175
630,406.844
637,407.503
644,408.154
651,408.797
658,409.434
665,410.064
672,410.687
679,411.306
686,411.919
693,412.527
700,413.132
707,413.733
714,414.331
721,414.927
728,415.52
735,416.112
742,416.702
749,417.292
756,417.882
763,418.472
770,419.062
777,419.653
784,420.246
791,420.84
798,421.437
805,422.036
812,422.638
819,423.243
826,423.852
833,424.464
840,425.08
847,425.7
854,426.324
861,426.952
868,427.583
875,428.217
882,428.854
889,429.494
896,430.135
903,430.778
910,431.421
917,432.063
924,432.705
931,433.344
938,433.98
945,434.613
952,435.241
959,435.865
966,436.483
973,437.095
980,437.7
987,438.299
994,438.892
1000,439.394
1010,440.219
1020,441.028
1020,441.028
1030,441.823
1040,442.603
1040,442.603
1050,443.367
1060,444.117
1060,444.117
1070,444.851
1080,445.571
1090,446.276
1090,446.276
1100,446.967
1110,447.643
1110,447.643
1120,448.306
1130,448.954
1130,448.954
1140,449.589
1150,450.212
1160,450.821
1160,450.821
1170,451.417
1180,452.001
1180,452.001
1190,452.572
1200,453.131
1200,453.131
1210,453.679
1220,454.215
1230,454.739
1230,454.739
1240,455.253
1250,455.755
1250,455.755
1260,456.247
1270,456.728
1270,456.728
1280,457.199
1290,457.66
1300,458.111
1300,458.111
1310,458.552
1320,458.984
1320,458.984
1330,459.406
1340,459.82
1340,459.82
1350,460.224
1360,460.62
1370,461.007
1370,461.007
1380,461.386
1390,461.757
1390,461.757
1400,462.119
1410,462.474
1410,462.474
1420,462.821
1430,463.16
1440,463.492
1440,463.492
1450,463.817
1460,464.135
1460,464.135
1470,464.446
1480,464.75
1480,464.75
1490,465.047
1500,465.338
1510,465.622
1510,465.622
1520,465.901
1530,466.172
1530,466.172
1540,466.439
1550,466.699
1550,466.699
1560,466.953
1570,467.203
1580,467.446
1580,467.446
1590,467.684
1600,467.917
1600,467.917
1610,468.144
1620,468.368
1620,468.368
1630,468.585
1640,468.798
1650,469.006
1650,469.006
1660,469.21
1670,469.409
1670,469.409
1680,469.604
1690,469.794
1690,469.794
1700,469.981
1710,470.162
1720,470.341
1720,470.341
1730,470.514
1740,470.685
1740,470.685
1750,470.851
1760,471.014
1760,471.014
1770,471.173
1780,471.328
1790,471.481
1790,471.481
1800,471.629
1800,471.629