File: results/E_Glass/1Mass_DSC/E_Glass_linear_dsc_M_progressMonitor.csv
Loop,Time,r0-A,p0-C0,p1-C0,p0-Cpa,p1-Cpa,p0-Cpb,p1-Cpb,r0-E,r0-Hp,p0-K,p1-K,Value,r0-Xi,p0-eps,p1-eps,p0-ka,p1-ka,p0-kb,p1-kb,r0-n,r0-nO2,p0-rho,p1-rho,
-1,0,4.47e+12,1.0,0.0,1168.94,1650.34,0.0468958,0.794814,1.48e+05,227181,11159.7,100000000.0,8.10118e-05,0.733809,0.50643,0.94,0.182964,0.113924,8.27233e-05,0.00092585,2.35725,0.0,1683.0,1235.0,
0,1075.75,4.47e+12,1.0,0.0,1168.94,1650.34,0.0468958,0.794814,1.48e+05,227181,11159.7,100000000.0,8.10118e-05,0.733809,0.50643,0.94,0.182964,0.113924,8.27233e-05,0.00092585,2.35725,0.0,1683.0,1235.0,
1,2223.52,2.47e+12,1.0,0.0,1065.41,657.791,0.0462822,0.231234,1.68e+05,203499,27915.4,100000000.0,3.826e-05,0.733809,0.710709,0.94,0.494966,0.107695,8.68266e-05,0.000454974,1.36644,0.0,1683.0,1235.0,
2,3442.85,3.53e+12,1.0,0.0,1102.26,1406.53,0.0466916,0.454124,1.58e+05,202379,24086.3,100000000.0,2.05794e-05,0.733809,0.591637,0.94,0.31636,0.124874,8.64294e-05,0.000593827,1.77418,0.0,1683.0,1235.0,
3,4710.13,3.49e+12,1.0,0.0,1107.87,1211.08,0.0467437,0.481775,1.58e+05,216857,22969,100000000.0,1.36087e-05,0.733809,0.597889,0.94,0.269465,0.121357,9.28661e-05,0.000652671,1.74352,0.0,1683.0,1235.0,
4,5964.13,3.43e+12,1.0,0.0,1110.11,1086.35,0.0467684,0.468643,1.57e+05,217991,22656.8,100000000.0,1.09895e-05,0.733809,0.59231,0.94,0.264299,0.117808,9.50047e-05,0.00067115,1.8231,0.0,1683.0,1235.0,
5,7210.08,3.52e+12,1.0,0.0,1110.09,1265.81,0.0465886,0.459745,1.58e+05,206085,22584.2,100000000.0,9.83162e-06,0.733809,0.603699,0.94,0.259811,0.132576,9.32982e-05,0.000650831,1.79756,0.0,1683.0,1235.0,
6,8483.98,3.80e+12,1.0,0.0,1109.33,1351.79,0.0465582,0.452738,1.60e+05,200406,22616.9,100000000.0,9.51775e-06,0.733809,0.613906,0.94,0.261496,0.138745,9.51552e-05,0.000625077,1.73257,0.0,1683.0,1235.0,
7,9702.22,4.13e+12,1.0,0.0,1112.89,1688.55,0.0459282,0.481621,1.62e+05,191353,22273.1,100000000.0,8.44362e-06,0.733809,0.642245,0.94,0.272074,0.172666,7.23589e-05,0.000588333,1.54431,0.0,1683.0,1235.0,
8,10912.5,4.52e+12,1.0,0.0,1114.51,2030.05,0.0455364,0.483766,1.64e+05,183449,22407.7,100000000.0,7.75763e-06,0.733809,0.658767,0.94,0.275679,0.192439,6.32828e-05,0.000558252,1.41442,0.0,1683.0,1235.0,
9,12162.8,4.98e+12,1.0,0.0,1114.5,2443.15,0.0452823,0.45347,1.66e+05,170998,23052.1,100000000.0,7.15478e-06,0.733809,0.673746,0.94,0.266096,0.205345,6.50906e-05,0.000520296,1.30064,0.0,1683.0,1235.0,
10,13439.2,5.34e+12,1.0,0.0,1114.94,2813.21,0.0450939,0.44287,1.67e+05,161943,23575.4,100000000.0,6.85059e-06,0.733809,0.681818,0.94,0.263008,0.216947,6.54337e-05,0.000490623,1.21285,0.0,1683.0,1235.0,
11,14701.7,5.65e+12,1.0,0.0,1114.3,3130.49,0.0449832,0.41807,1.68e+05,152665,24282.6,100000000.0,6.76905e-06,0.733809,0.688375,0.94,0.258489,0.22258,6.92654e-05,0.000459849,1.15065,0.0,1683.0,1235.0,
12,15975.6,5.70e+12,1.0,0.0,1114.61,3196.6,0.0449371,0.418535,1.68e+05,151462,24350.3,100000000.0,6.75048e-06,0.733809,0.690035,0.94,0.258253,0.224739,6.84873e-05,0.000455478,1.13184,0.0,1683.0,1235.0,
13,17301,5.68e+12,1.0,0.0,1114.55,3169.84,0.0449503,0.419996,1.68e+05,152269,24312.9,100000000.0,6.74198e-06,0.733809,0.689464,0.94,0.25909,0.223878,6.83344e-05,0.000457203,1.13624,0.0,1683.0,1235.0,
14,18703.2,5.72e+12,1.0,0.0,1114.45,3211.15,0.0449348,0.417107,1.68e+05,151125,24421.8,100000000.0,6.73746e-06,0.733809,0.690499,0.94,0.258859,0.224501,6.86472e-05,0.000452783,1.12665,0.0,1683.0,1235.0,
15,20531,3.94e+12,1.0,0.0,1128.82,2718.91,0.0450745,0.551875,1.66e+05,173137,17758,100000000.0,6.67466e-06,0.733809,0.699919,0.94,0.233001,0.0556691,0.000158601,0.000842267,1.19488,0.0,1683.0,1235.0,
16,21814.5,4.58e+12,1.0,0.0,1126.37,2712.33,0.0453362,0.542821,1.68e+05,164400,21621.6,100000000.0,6.607e-06,0.733809,0.709835,0.94,0.246151,0.0996756,0.000126286,0.000719365,1.17913,0.0,1683.0,1235.0,
17,23095.9,4.25e+12,1.0,0.0,1127.31,2820.38,0.0452433,0.526959,1.67e+05,168814,19282.6,100000000.0,6.5416e-06,0.733809,0.708626,0.94,0.230394,0.0684446,0.00016147,0.000809195,1.16072,0.0,1683.0,1235.0,
18,24389,4.71e+12,1.0,0.0,1129.44,2821.25,0.0456545,0.53927,1.69e+05,159789,23622.2,100000000.0,6.36406e-06,0.733809,0.722941,0.94,0.239479,0.0945452,0.00014172,0.00071081,1.13111,0.0,1683.0,1235.0,
19,25612.2,4.76e+12,1.0,0.0,1129.44,2761.11,0.0459662,0.558169,1.69e+05,158499,25135.3,100000000.0,6.36373e-06,0.733809,0.720719,0.94,0.241086,0.0938851,0.000136521,0.000692022,1.14182,0.0,1683.0,1235.0,
20,26910.2,4.76e+12,1.0,0.0,1129.44,2761.11,0.0459662,0.558169,1.69e+05,158499,25135.3,100000000.0,6.36373e-06,0.733809,0.720719,0.94,0.241086,0.0938851,0.000136521,0.000692022,1.14182,0.0,1683.0,1235.0,
21,28219.6,4.76e+12,1.0,0.0,1129.44,2761.11,0.0459662,0.558169,1.69e+05,158499,25135.3,100000000.0,6.36373e-06,0.733809,0.720719,0.94,0.241086,0.0938851,0.000136521,0.000692022,1.14182,0.0,1683.0,1235.0,
22,29540.6,4.76e+12,1.0,0.0,1129.44,2761.11,0.0459662,0.558169,1.69e+05,158499,25135.3,100000000.0,6.36373e-06,0.733809,0.720719,0.94,0.241086,0.0938851,0.000136521,0.000692022,1.14182,0.0,1683.0,1235.0,
23,30899.2,4.76e+12,1.0,0.0,1129.44,2761.11,0.0459662,0.558169,1.69e+05,158499,25135.3,100000000.0,6.36373e-06,0.733809,0.720719,0.94,0.241086,0.0938851,0.000136521,0.000692022,1.14182,0.0,1683.0,1235.0,
24,32285.5,4.97e+12,1.0,0.0,1129.07,2874.11,0.0464298,0.545819,1.69e+05,154164,27398.2,100000000.0,6.33346e-06,0.733809,0.720927,0.94,0.242477,0.121547,0.00012784,0.000630179,1.12419,0.0,1683.0,1235.0,
25,33660.6,4.55e+12,1.0,0.0,1121.6,2674.91,0.0460459,0.533486,1.69e+05,153433,27807.6,100000000.0,6.29743e-06,0.733809,0.717773,0.94,0.230379,0.0927775,0.000145477,0.000645003,1.15949,0.0,1683.0,1235.0,
26,35077.5,4.55e+12,1.0,0.0,1121.6,2674.91,0.0460459,0.533486,1.69e+05,153433,27807.6,100000000.0,6.29743e-06,0.733809,0.717773,0.94,0.230379,0.0927775,0.000145477,0.000645003,1.15949,0.0,1683.0,1235.0,
27,36413.8,4.79e+12,1.0,0.0,1124.04,2734.61,0.0460667,0.541412,1.69e+05,155123,27058.6,100000000.0,6.28823e-06,0.733809,0.721713,0.94,0.237866,0.106097,0.000136276,0.00064753,1.14494,0.0,1683.0,1235.0,
28,37836.9,4.79e+12,1.0,0.0,1124.04,2734.61,0.0460667,0.541412,1.69e+05,155123,27058.6,100000000.0,6.28823e-06,0.733809,0.721713,0.94,0.237866,0.106097,0.000136276,0.00064753,1.14494,0.0,1683.0,1235.0,
29,39357.8,4.79e+12,1.0,0.0,1124.04,2734.61,0.0460667,0.541412,1.69e+05,155123,27058.6,100000000.0,6.28823e-06,0.733809,0.721713,0.94,0.237866,0.106097,0.000136276,0.00064753,1.14494,0.0,1683.0,1235.0,
30,40820.1,3.68e+12,1.0,0.0,1139.84,2806.35,0.044985,0.554951,1.67e+05,157600,18935.9,100000000.0,6.21012e-06,0.733809,0.722587,0.94,0.222925,0.0309094,0.000175052,0.000792655,1.14225,0.0,1683.0,1235.0,
31,42230.2,3.98e+12,1.0,0.0,1139.34,2788.21,0.0451152,0.570211,1.69e+05,151482,20980,100000000.0,6.11755e-06,0.733809,0.735313,0.94,0.227899,0.0414714,0.000164569,0.000735889,1.10894,0.0,1683.0,1235.0,
32,43602.3,4.18e+12,1.0,0.0,1130.26,2732.11,0.0447345,0.567671,1.70e+05,149883,20989.4,100000000.0,6.05749e-06,0.733809,0.745246,0.94,0.227339,0.0469991,0.000167165,0.000716425,1.08415,0.0,1683.0,1235.0,
33,44972.9,4.21e+12,1.0,0.0,1125.96,2742.83,0.0442382,0.569602,1.71e+05,147233,19542.6,100000000.0,5.98718e-06,0.733809,0.755824,0.94,0.224505,0.0450915,0.000173945,0.000712202,1.05902,0.0,1683.0,1235.0,
34,46357.6,4.28e+12,1.0,0.0,1104.91,2616.08,0.0432261,0.621763,1.72e+05,144513,17151.4,100000000.0,5.83948e-06,0.733809,0.765913,0.94,0.219944,0.049049,0.000174733,0.000697785,1.04716,0.0,1683.0,1235.0,
35,47723.4,4.22e+12,1.0,0.0,1086.08,2616.6,0.0419958,0.698044,1.74e+05,138425,13849.1,100000000.0,5.7316e-06,0.733809,0.781842,0.94,0.215479,0.0484075,0.000175056,0.000686326,0.997295,0.0,1683.0,1235.0,
36,49089.7,4.20e+12,1.0,0.0,1075.02,2613.63,0.0414157,0.731527,1.75e+05,132800,12648.9,100000000.0,5.63996e-06,0.733809,0.791841,0.94,0.212109,0.0575198,0.000174691,0.000650679,0.972361,0.0,1683.0,1235.0,
37,50459.6,4.20e+12,1.0,0.0,1058.68,2669.06,0.0409184,0.742934,1.76e+05,125473,13402,100000000.0,5.55182e-06,0.733809,0.802032,0.94,0.208161,0.0785663,0.000175731,0.000583908,0.925941,0.0,1683.0,1235.0,
38,51830.4,4.18e+12,1.0,0.0,1053.44,2717.26,0.0407759,0.752127,1.77e+05,121879,13528.8,100000000.0,5.53677e-06,0.733809,0.805841,0.94,0.206948,0.0899726,0.00017466,0.000551856,0.907242,0.0,1683.0,1235.0,
39,53217.8,4.20e+12,1.0,0.0,1054.28,2666.09,0.0406923,0.751671,1.77e+05,123626,12956.8,100000000.0,5.52694e-06,0.733809,0.805675,0.94,0.207248,0.0842898,0.00017534,0.000569163,0.917586,0.0,1683.0,1235.0,
40,54726.7,4.21e+12,1.0,0.0,1053.6,2657.04,0.0406802,0.748937,1.77e+05,123469,13070.9,100000000.0,5.525e-06,0.733809,0.806107,0.94,0.207136,0.0859059,0.00017538,0.000565166,0.918159,0.0,1683.0,1235.0,
41,56215.3,4.22e+12,1.0,0.0,1053.75,2642.75,0.040683,0.747246,1.77e+05,123616,13038.7,100000000.0,5.52369e-06,0.733809,0.806228,0.94,0.207234,0.0862794,0.000175344,0.000564497,0.9212,0.0,1683.0,1235.0,
42,57702.1,4.25e+12,1.0,0.0,1054.53,2607.77,0.0406838,0.743684,1.77e+05,124346,12903.5,100000000.0,5.52112e-06,0.733809,0.806454,0.94,0.207792,0.0860628,0.000174958,0.000567302,0.928652,0.0,1683.0,1235.0,
43,59143.6,4.30e+12,1.0,0.0,1054.6,2547.88,0.0406833,0.736165,1.77e+05,124974,12867.9,100000000.0,5.51896e-06,0.733809,0.807218,0.94,0.208334,0.088549,0.000174454,0.000563404,0.940014,0.0,1683.0,1235.0,
44,60501.2,4.32e+12,1.0,0.0,1054.08,2525.68,0.0406842,0.729843,1.77e+05,125219,13051,100000000.0,5.51752e-06,0.733809,0.807351,0.94,0.208263,0.0900349,0.000174793,0.000560462,0.94367,0.0,1683.0,1235.0,