File: results/E_Glass/1Mass_DSC/E_Glass_linear_dsc_M_0_cone_Mass.csv
# Time [s], Mass [Kg]
0.000000000000000000e+00,1
7,1
14,1
21,1
28,1
35,1
42,1
49,1
56,1
63,1
70,1
77,1
84,0.999999
91,0.999999
98,0.999998
105,0.999997
112,0.999995
119,0.999991
126,0.999987
133,0.99998
140,0.999971
147,0.999958
154,0.99994
161,0.999916
168,0.999884
175,0.999843
182,0.999789
189,0.999719
196,0.999631
203,0.999518
210,0.999377
217,0.999201
224,0.998984
231,0.998718
238,0.998395
245,0.998005
252,0.997539
259,0.996986
266,0.996334
273,0.995572
280,0.994689
287,0.993673
294,0.992513
301,0.991199
308,0.989721
315,0.988071
322,0.986242
329,0.984226
336,0.982021
343,0.979622
350,0.977028
357,0.974239
364,0.971257
371,0.968085
378,0.964726
385,0.961188
392,0.957476
399,0.953599
406,0.949565
413,0.945387
420,0.941073
427,0.936637
434,0.93209
441,0.927445
448,0.922716
455,0.917914
462,0.913053
469,0.908146
476,0.903205
483,0.898242
490,0.893267
497,0.888292
504,0.883327
511,0.87838
518,0.87346
525,0.868574
532,0.863729
539,0.858931
546,0.854186
553,0.849497
560,0.84487
567,0.840308
574,0.835814
581,0.831391
588,0.827041
595,0.822767
602,0.818571
609,0.814455
616,0.810421
623,0.80647
630,0.802605
637,0.798826
644,0.795136
651,0.791537
658,0.788029
665,0.784616
672,0.781298
679,0.778079
686,0.774958
693,0.77194
700,0.769026
707,0.766218
714,0.763518
721,0.76093
728,0.758454
735,0.756094
742,0.753852
749,0.751729
756,0.749729
763,0.747853
770,0.746103
777,0.74448
784,0.742985
791,0.741618
798,0.740379
805,0.739267
812,0.73828
819,0.737415
826,0.736667
833,0.73603
840,0.735499
847,0.735063
854,0.734716
861,0.734445
868,0.73424
875,0.73409
882,0.733985
889,0.733914
896,0.733868
903,0.73384
910,0.733824
917,0.733816
924,0.733812
931,0.73381
938,0.733809
945,0.733809
952,0.733809
959,0.733809
966,0.733809
973,0.733809
980,0.733809
987,0.733809
994,0.733809
1000,0.733809
1010,0.733809
1020,0.733809
1020,0.733809
1030,0.733809
1040,0.733809
1040,0.733809
1050,0.733809
1060,0.733809
1060,0.733809
1070,0.733809
1080,0.733809
1090,0.733809
1090,0.733809
1100,0.733809
1110,0.733809
1110,0.733809
1120,0.733809
1130,0.733809
1130,0.733809
1140,0.733809
1150,0.733809
1160,0.733809
1160,0.733809
1170,0.733809
1180,0.733809
1180,0.733809
1190,0.733809
1200,0.733809
1200,0.733809
1210,0.733809
1220,0.733809
1230,0.733809
1230,0.733809
1240,0.733809
1250,0.733809
1250,0.733809
1260,0.733809
1270,0.733809
1270,0.733809
1280,0.733809
1290,0.733809
1300,0.733809
1300,0.733809
1310,0.733809
1320,0.733809
1320,0.733809
1330,0.733809
1340,0.733809
1340,0.733809
1350,0.733809
1360,0.733809
1370,0.733809
1370,0.733809
1380,0.733809
1390,0.733809
1390,0.733809
1400,0.733809
1410,0.733809
1410,0.733809
1420,0.733809
1430,0.733809
1440,0.733809
1440,0.733809
1450,0.733809
1460,0.733809
1460,0.733809
1470,0.733809
1480,0.733809
1480,0.733809
1490,0.733809
1500,0.733809
1510,0.733809
1510,0.733809
1520,0.733809
1530,0.733809
1530,0.733809
1540,0.733809
1550,0.733809
1550,0.733809
1560,0.733809
1570,0.733809
1580,0.733809
1580,0.733809
1590,0.733809
1600,0.733809
1600,0.733809
1610,0.733809
1620,0.733809
1620,0.733809
1630,0.733809
1640,0.733809
1650,0.733809
1650,0.733809
1660,0.733809
1670,0.733809
1670,0.733809
1680,0.733809
1690,0.733809
1690,0.733809
1700,0.733809
1710,0.733809
1720,0.733809
1720,0.733809
1730,0.733809
1740,0.733809
1740,0.733809
1750,0.733809
1760,0.733809
1760,0.733809
1770,0.733809
1780,0.733809
1790,0.733809
1790,0.733809
1800,0.733809
1800,0.733809