File: results/E_Glass/E_Glass_linear_tga_M_BT/E_Glass_linear_tga_M_BT_progressMonitor.csv
Loop,Time,r0-A,p0-C0,p1-C0,p0-Cpa,p1-Cpa,p0-Cpb,p1-Cpb,r0-E,r0-Hp,p0-K,p1-K,Value,r0-Xi,p0-eps,p1-eps,p0-ka,p1-ka,p0-kb,p1-kb,r0-n,r0-nO2,p0-rho,p1-rho,
-1,0,2.50e+12,1.0,0.0,623.778,1820.29,0.158725,0.552521,1.85e+05,118502,10665.6,100000000.0,0.00106981,0.733809,0.722205,0.94,0.214887,0.215425,3.6565e-05,0.000303263,0.981742,0.0,1683.0,1235.0,
12,966.1386,2.33e+12,1.0,0.0,991.983,947.669,0.101736,0.419738,1.81e+05,101085,20487.8,100000000.0,4.17747e-05,0.733809,0.897166,0.94,0.289785,0.0828387,5.01764e-05,0.000313089,1.00048,0.0,1683.0,1235.0,
25,2094.66,2.38e+12,1.0,0.0,1086.82,863.987,0.118794,0.500252,1.81e+05,97601.4,22784.4,100000000.0,1.67268e-05,0.733809,0.967707,0.94,0.322391,0.0252521,4.8601e-05,0.0003691,1.00521,0.0,1683.0,1235.0,
38,3146.01,2.28e+12,1.0,0.0,1081.27,911.997,0.0715723,0.43522,1.81e+05,99194.4,13431.3,100000000.0,1.22458e-05,0.733809,0.949395,0.94,0.316931,0.0693632,4.04724e-05,0.000310959,1.00259,0.0,1683.0,1235.0,
51,4174.8,2.11e+12,1.0,0.0,1077.16,950.849,0.0536273,0.392516,1.80e+05,99271.6,12654,100000000.0,1.05391e-05,0.733809,0.941287,0.94,0.316041,0.0253582,3.40369e-05,0.000377208,0.993186,0.0,1683.0,1235.0,
64,5187.08,2.11e+12,1.0,0.0,1079,949.783,0.0537406,0.39435,1.80e+05,99290,12670.6,100000000.0,6.88005e-06,0.733809,0.942539,0.94,0.316349,0.024,3.47877e-05,0.000379455,0.992663,0.0,1683.0,1235.0,
77,6295.3,2.11e+12,1.0,0.0,1077.91,960.769,0.0530591,0.379541,1.80e+05,99265,12739.5,100000000.0,6.75011e-06,0.733809,0.94153,0.94,0.316036,0.023763,3.45469e-05,0.000379832,0.992091,0.0,1683.0,1235.0,
90,7411.46,2.11e+12,1.0,0.0,1077.01,963.719,0.0519093,0.375522,1.80e+05,99301.7,12758.5,100000000.0,6.56251e-06,0.733809,0.940622,0.94,0.315818,0.0238167,3.40412e-05,0.000379915,0.991962,0.0,1683.0,1235.0,
103,8572.11,2.13e+12,1.0,0.0,1079.88,957.205,0.0604696,0.382168,1.81e+05,99108.9,12943.4,100000000.0,6.45514e-06,0.733809,0.945145,0.94,0.316539,0.0255604,3.70391e-05,0.000376375,0.993989,0.0,1683.0,1235.0,
116,9760.69,2.13e+12,1.0,0.0,1079.88,957.205,0.0604696,0.382168,1.81e+05,99108.9,12943.4,100000000.0,6.45514e-06,0.733809,0.945145,0.94,0.316539,0.0255604,3.70391e-05,0.000376375,0.993989,0.0,1683.0,1235.0,
129,10957.1,2.13e+12,1.0,0.0,1079.88,957.205,0.0604696,0.382168,1.81e+05,99108.9,12943.4,100000000.0,6.45514e-06,0.733809,0.945145,0.94,0.316539,0.0255604,3.70391e-05,0.000376375,0.993989,0.0,1683.0,1235.0,
142,12144,2.13e+12,1.0,0.0,1079.88,957.205,0.0604696,0.382168,1.81e+05,99108.9,12943.4,100000000.0,6.45514e-06,0.733809,0.945145,0.94,0.316539,0.0255604,3.70391e-05,0.000376375,0.993989,0.0,1683.0,1235.0,
155,13330.1,2.13e+12,1.0,0.0,1079.88,957.205,0.0604696,0.382168,1.81e+05,99108.9,12943.4,100000000.0,6.45514e-06,0.733809,0.945145,0.94,0.316539,0.0255604,3.70391e-05,0.000376375,0.993989,0.0,1683.0,1235.0,
168,14506.6,2.13e+12,1.0,0.0,1079.88,957.205,0.0604696,0.382168,1.81e+05,99108.9,12943.4,100000000.0,6.45514e-06,0.733809,0.945145,0.94,0.316539,0.0255604,3.70391e-05,0.000376375,0.993989,0.0,1683.0,1235.0,
181,15670.9,2.13e+12,1.0,0.0,1079.88,957.205,0.0604696,0.382168,1.81e+05,99108.9,12943.4,100000000.0,6.45514e-06,0.733809,0.945145,0.94,0.316539,0.0255604,3.70391e-05,0.000376375,0.993989,0.0,1683.0,1235.0,
194,16813.2,2.13e+12,1.0,0.0,1079.88,957.205,0.0604696,0.382168,1.81e+05,99108.9,12943.4,100000000.0,6.45514e-06,0.733809,0.945145,0.94,0.316539,0.0255604,3.70391e-05,0.000376375,0.993989,0.0,1683.0,1235.0,
207,17989.5,2.13e+12,1.0,0.0,1079.88,957.205,0.0604696,0.382168,1.81e+05,99108.9,12943.4,100000000.0,6.45514e-06,0.733809,0.945145,0.94,0.316539,0.0255604,3.70391e-05,0.000376375,0.993989,0.0,1683.0,1235.0,
220,19176.9,2.13e+12,1.0,0.0,1079.88,957.205,0.0604696,0.382168,1.81e+05,99108.9,12943.4,100000000.0,6.45514e-06,0.733809,0.945145,0.94,0.316539,0.0255604,3.70391e-05,0.000376375,0.993989,0.0,1683.0,1235.0,
233,20354.8,2.14e+12,1.0,0.0,1080.83,961.666,0.0654543,0.374406,1.81e+05,98967.8,13070.3,100000000.0,6.44599e-06,0.733809,0.947314,0.94,0.316791,0.0265105,3.86395e-05,0.000374306,0.994995,0.0,1683.0,1235.0,
246,21547.9,2.14e+12,1.0,0.0,1080.83,961.666,0.0654543,0.374406,1.81e+05,98967.8,13070.3,100000000.0,6.44599e-06,0.733809,0.947314,0.94,0.316791,0.0265105,3.86395e-05,0.000374306,0.994995,0.0,1683.0,1235.0,
259,22738.2,2.14e+12,1.0,0.0,1080.83,961.666,0.0654543,0.374406,1.81e+05,98967.8,13070.3,100000000.0,6.44599e-06,0.733809,0.947314,0.94,0.316791,0.0265105,3.86395e-05,0.000374306,0.994995,0.0,1683.0,1235.0,
272,23938.1,2.14e+12,1.0,0.0,1080.83,961.666,0.0654543,0.374406,1.81e+05,98967.8,13070.3,100000000.0,6.44599e-06,0.733809,0.947314,0.94,0.316791,0.0265105,3.86395e-05,0.000374306,0.994995,0.0,1683.0,1235.0,
285,25130.2,2.14e+12,1.0,0.0,1080.83,961.666,0.0654543,0.374406,1.81e+05,98967.8,13070.3,100000000.0,6.44599e-06,0.733809,0.947314,0.94,0.316791,0.0265105,3.86395e-05,0.000374306,0.994995,0.0,1683.0,1235.0,
298,26299.8,2.14e+12,1.0,0.0,1080.83,961.666,0.0654543,0.374406,1.81e+05,98967.8,13070.3,100000000.0,6.44599e-06,0.733809,0.947314,0.94,0.316791,0.0265105,3.86395e-05,0.000374306,0.994995,0.0,1683.0,1235.0,
311,27493.1,2.14e+12,1.0,0.0,1080.83,961.666,0.0654543,0.374406,1.81e+05,98967.8,13070.3,100000000.0,6.44599e-06,0.733809,0.947314,0.94,0.316791,0.0265105,3.86395e-05,0.000374306,0.994995,0.0,1683.0,1235.0,
324,28662.3,2.14e+12,1.0,0.0,1080.83,961.666,0.0654543,0.374406,1.81e+05,98967.8,13070.3,100000000.0,6.44599e-06,0.733809,0.947314,0.94,0.316791,0.0265105,3.86395e-05,0.000374306,0.994995,0.0,1683.0,1235.0,
337,29844,2.14e+12,1.0,0.0,1080.83,961.666,0.0654543,0.374406,1.81e+05,98967.8,13070.3,100000000.0,6.44599e-06,0.733809,0.947314,0.94,0.316791,0.0265105,3.86395e-05,0.000374306,0.994995,0.0,1683.0,1235.0,
350,31030.6,2.14e+12,1.0,0.0,1080.83,961.666,0.0654543,0.374406,1.81e+05,98967.8,13070.3,100000000.0,6.44599e-06,0.733809,0.947314,0.94,0.316791,0.0265105,3.86395e-05,0.000374306,0.994995,0.0,1683.0,1235.0,
363,32199.4,2.14e+12,1.0,0.0,1080.83,961.666,0.0654543,0.374406,1.81e+05,98967.8,13070.3,100000000.0,6.44599e-06,0.733809,0.947314,0.94,0.316791,0.0265105,3.86395e-05,0.000374306,0.994995,0.0,1683.0,1235.0,
376,33370.8,2.14e+12,1.0,0.0,1080.83,961.666,0.0654543,0.374406,1.81e+05,98967.8,13070.3,100000000.0,6.44599e-06,0.733809,0.947314,0.94,0.316791,0.0265105,3.86395e-05,0.000374306,0.994995,0.0,1683.0,1235.0,
389,34542.9,2.14e+12,1.0,0.0,1080.83,961.666,0.0654543,0.374406,1.81e+05,98967.8,13070.3,100000000.0,6.44599e-06,0.733809,0.947314,0.94,0.316791,0.0265105,3.86395e-05,0.000374306,0.994995,0.0,1683.0,1235.0,
402,35716.9,2.14e+12,1.0,0.0,1080.83,961.666,0.0654543,0.374406,1.81e+05,98967.8,13070.3,100000000.0,6.44599e-06,0.733809,0.947314,0.94,0.316791,0.0265105,3.86395e-05,0.000374306,0.994995,0.0,1683.0,1235.0,
415,36879.2,2.14e+12,1.0,0.0,1080.83,961.666,0.0654543,0.374406,1.81e+05,98967.8,13070.3,100000000.0,6.44599e-06,0.733809,0.947314,0.94,0.316791,0.0265105,3.86395e-05,0.000374306,0.994995,0.0,1683.0,1235.0,
428,38036.4,2.13e+12,1.0,0.0,1080.54,960.744,0.0638609,0.376234,1.81e+05,99015.3,13027.4,100000000.0,6.44409e-06,0.733809,0.946627,0.94,0.316715,0.0262031,3.81307e-05,0.000375002,0.994631,0.0,1683.0,1235.0,
441,39193.3,2.13e+12,1.0,0.0,1080.54,960.744,0.0638609,0.376234,1.81e+05,99015.3,13027.4,100000000.0,6.44409e-06,0.733809,0.946627,0.94,0.316715,0.0262031,3.81307e-05,0.000375002,0.994631,0.0,1683.0,1235.0,
454,40348.2,2.13e+12,1.0,0.0,1080.54,960.744,0.0638609,0.376234,1.81e+05,99015.3,13027.4,100000000.0,6.44409e-06,0.733809,0.946627,0.94,0.316715,0.0262031,3.81307e-05,0.000375002,0.994631,0.0,1683.0,1235.0,
467,41527.9,2.13e+12,1.0,0.0,1080.54,960.744,0.0638609,0.376234,1.81e+05,99015.3,13027.4,100000000.0,6.44409e-06,0.733809,0.946627,0.94,0.316715,0.0262031,3.81307e-05,0.000375002,0.994631,0.0,1683.0,1235.0,
480,42697.7,2.13e+12,1.0,0.0,1080.54,960.744,0.0638609,0.376234,1.81e+05,99015.3,13027.4,100000000.0,6.44409e-06,0.733809,0.946627,0.94,0.316715,0.0262031,3.81307e-05,0.000375002,0.994631,0.0,1683.0,1235.0,
493,43860.6,2.13e+12,1.0,0.0,1080.54,960.744,0.0638609,0.376234,1.81e+05,99015.3,13027.4,100000000.0,6.44409e-06,0.733809,0.946627,0.94,0.316715,0.0262031,3.81307e-05,0.000375002,0.994631,0.0,1683.0,1235.0,
506,45027.9,2.13e+12,1.0,0.0,1080.54,960.744,0.0638609,0.376234,1.81e+05,99015.3,13027.4,100000000.0,6.44409e-06,0.733809,0.946627,0.94,0.316715,0.0262031,3.81307e-05,0.000375002,0.994631,0.0,1683.0,1235.0,
519,46193.3,2.13e+12,1.0,0.0,1080.54,960.744,0.0638609,0.376234,1.81e+05,99015.3,13027.4,100000000.0,6.44409e-06,0.733809,0.946627,0.94,0.316715,0.0262031,3.81307e-05,0.000375002,0.994631,0.0,1683.0,1235.0,
532,47365.9,2.13e+12,1.0,0.0,1080.54,960.744,0.0638609,0.376234,1.81e+05,99015.3,13027.4,100000000.0,6.44409e-06,0.733809,0.946627,0.94,0.316715,0.0262031,3.81307e-05,0.000375002,0.994631,0.0,1683.0,1235.0,
545,48538.9,2.13e+12,1.0,0.0,1080.54,960.744,0.0638609,0.376234,1.81e+05,99015.3,13027.4,100000000.0,6.44409e-06,0.733809,0.946627,0.94,0.316715,0.0262031,3.81307e-05,0.000375002,0.994631,0.0,1683.0,1235.0,
558,49707.2,2.13e+12,1.0,0.0,1080.54,960.744,0.0638609,0.376234,1.81e+05,99015.3,13027.4,100000000.0,6.44409e-06,0.733809,0.946627,0.94,0.316715,0.0262031,3.81307e-05,0.000375002,0.994631,0.0,1683.0,1235.0,
571,50868,2.13e+12,1.0,0.0,1080.54,960.744,0.0638609,0.376234,1.81e+05,99015.3,13027.4,100000000.0,6.44409e-06,0.733809,0.946627,0.94,0.316715,0.0262031,3.81307e-05,0.000375002,0.994631,0.0,1683.0,1235.0,
584,52028.1,2.13e+12,1.0,0.0,1080.54,960.744,0.0638609,0.376234,1.81e+05,99015.3,13027.4,100000000.0,6.44409e-06,0.733809,0.946627,0.94,0.316715,0.0262031,3.81307e-05,0.000375002,0.994631,0.0,1683.0,1235.0,
585,52126,2.13e+12,1.0,0.0,1080.54,960.744,0.0638609,0.376234,1.81e+05,99015.3,13027.4,100000000.0,6.44409e-06,0.733809,0.946627,0.94,0.316715,0.0262031,3.81307e-05,0.000375002,0.994631,0.0,1683.0,1235.0,