File: results/E_Glass/E_Glass_linear_tga_M_BT/E_Glass_linear_tga_M_BT_0_cone_Bh.csv
# Time [s], Convective Heat Transfer Coefficient [W/m2K]
0.000000000000000000e+00,0.000000000000000000e+00
7,0.718262
14,1.85715
21,2.72053
28,3.37661
35,3.89852
42,4.32971
49,4.69655
56,5.01591
63,5.29903
70,5.55369
77,5.78547
84,5.99841
91,6.19559
98,6.37935
105,6.55152
112,6.71357
119,6.86668
126,7.01181
133,7.14976
140,7.28121
147,7.40671
154,7.52672
161,7.64165
168,7.75185
175,7.85764
182,7.95935
189,8.05728
196,8.15171
203,8.24289
210,8.33102
217,8.41626
224,8.49877
231,8.57866
238,8.65604
245,8.73099
252,8.80357
259,8.87383
266,8.94181
273,9.00749
280,9.07086
287,9.13188
294,9.19047
301,9.24653
308,9.29994
315,9.35054
322,9.39819
329,9.44273
336,9.48402
343,9.52196
350,9.5565
357,9.58765
364,9.61551
371,9.64022
378,9.662
385,9.68113
392,9.69787
399,9.71255
406,9.72546
413,9.73687
420,9.74706
427,9.75623
434,9.76461
441,9.77234
448,9.77959
455,9.78645
462,9.79305
469,9.79944
476,9.8057
483,9.81188
490,9.81803
497,9.82418
504,9.83036
511,9.83661
518,9.84293
525,9.84936
532,9.85591
539,9.8626
546,9.86945
553,9.87645
560,9.88363
567,9.89098
574,9.89853
581,9.90625
588,9.91417
595,9.92229
602,9.93061
609,9.93914
616,9.94791
623,9.95693
630,9.96621
637,9.97579
644,9.98568
651,9.99591
658,10.0065
665,10.0175
672,10.0289
679,10.0408
686,10.0532
693,10.0662
700,10.0797
707,10.0939
714,10.1089
721,10.1246
728,10.1411
735,10.1586
742,10.177
749,10.1967
756,10.2175
763,10.2397
770,10.2634
777,10.2887
784,10.3158
791,10.3449
798,10.3759
805,10.4091
812,10.4445
819,10.4819
826,10.5211
833,10.5618
840,10.6033
847,10.6448
854,10.6858
861,10.7255
868,10.7635
875,10.7998
882,10.8343
889,10.8671
896,10.8984
903,10.9284
910,10.9571
917,10.9847
924,11.0111
931,11.0366
938,11.061
945,11.0846
952,11.1073
959,11.1291
966,11.1501
973,11.1703
980,11.1898
987,11.2086
994,11.2267
1000,11.2416
1010,11.2655
1020,11.2882
1020,11.2882
1030,11.3096
1040,11.33
1040,11.33
1050,11.3493
1060,11.3676
1060,11.3676
1070,11.3849
1080,11.4013
1090,11.4169
1090,11.4169
1100,11.4317
1110,11.4457
1110,11.4457
1120,11.4589
1130,11.4715
1130,11.4715
1140,11.4834
1150,11.4947
1160,11.5054
1160,11.5054
1170,11.5155
1180,11.5252
1180,11.5252
1190,11.5343
1200,11.5429
1200,11.5429
1210,11.5511
1220,11.5589
1230,11.5662
1230,11.5662
1240,11.5732
1250,11.5798
1250,11.5798
1260,11.586
1270,11.592
1270,11.592
1280,11.5976
1290,11.6029
1300,11.608
1300,11.608
1310,11.6127
1320,11.6173
1320,11.6173
1330,11.6216
1340,11.6256
1340,11.6256
1350,11.6295
1360,11.6332
1370,11.6366
1370,11.6366
1380,11.6399
1390,11.643
1390,11.643
1400,11.646
1410,11.6488
1410,11.6488
1420,11.6514
1430,11.6539
1440,11.6563
1440,11.6563
1450,11.6585
1460,11.6607
1460,11.6607
1470,11.6627
1480,11.6646
1480,11.6646
1490,11.6664
1500,11.6681
1510,11.6698
1510,11.6698
1520,11.6713
1530,11.6728
1530,11.6728
1540,11.6742
1550,11.6755
1550,11.6755
1560,11.6767
1570,11.6779
1580,11.679
1580,11.679
1590,11.6801
1600,11.6811
1600,11.6811
1610,11.682
1620,11.6829
1620,11.6829
1630,11.6838
1640,11.6846
1650,11.6854
1650,11.6854
1660,11.6861
1670,11.6868
1670,11.6868
1680,11.6874
1690,11.688
1690,11.688
1700,11.6886
1710,11.6892
1720,11.6897
1720,11.6897
1730,11.6902
1740,11.6907
1740,11.6907
1750,11.6911
1760,11.6916
1760,11.6916
1770,11.692
1780,11.6923
1790,11.6927
1790,11.6927
1800,11.693
1800,11.693