File: results/E_Glass/E_Glass_linear_tga_M_BT/E_Glass_linear_tga_M_BT_0_cone_FT.csv
# Time [s], Temperature [C]
0.000000000000000000e+00,25
7,46.7574
14,59.3312
21,68.6868
28,76.5428
35,83.6046
42,90.226
49,96.5903
56,102.793
63,108.884
70,114.889
77,120.821
84,126.687
91,132.49
98,138.233
105,143.915
112,149.54
119,155.109
126,160.625
133,166.094
140,171.523
147,176.922
154,182.301
161,187.663
168,193.001
175,198.292
182,203.505
189,208.616
196,213.614
203,218.501
210,223.285
217,227.975
224,232.576
231,237.095
238,241.531
245,245.888
252,250.161
259,254.35
266,258.45
273,262.455
280,266.356
287,270.149
294,273.818
301,277.352
308,280.748
315,283.982
322,287.045
329,289.943
336,292.648
343,295.165
350,297.516
357,299.679
364,301.673
371,303.544
378,305.266
385,306.872
392,308.419
399,309.872
406,311.267
413,312.665
420,314.018
427,315.358
434,316.746
441,318.125
448,319.523
455,321.001
462,322.495
469,324.03
476,325.668
483,327.341
490,329.073
497,330.922
504,332.82
511,334.787
518,336.871
525,339.007
532,341.206
539,343.493
546,345.813
553,348.16
560,350.536
567,352.897
574,355.231
581,357.533
588,359.779
595,361.965
602,364.094
609,366.156
616,368.158
623,370.099
630,371.987
637,373.823
644,375.609
651,377.35
658,379.05
665,380.712
672,382.338
679,383.933
686,385.497
693,387.033
700,388.545
707,390.033
714,391.502
721,392.952
728,394.386
735,395.807
742,397.216
749,398.615
756,400.007
763,401.394
770,402.779
777,404.164
784,405.551
791,406.944
798,408.345
805,409.756
812,411.182
819,412.625
826,414.087
833,415.571
840,417.076
847,418.605
854,420.153
861,421.718
868,423.291
875,424.867
882,426.435
889,427.988
896,429.519
903,431.021
910,432.488
917,433.92
924,435.313
931,436.668
938,437.983
945,439.259
952,440.497
959,441.695
966,442.854
973,443.978
980,445.066
987,446.118
994,447.136
1000,447.982
1010,449.34
1020,450.633
1020,450.633
1030,451.865
1040,453.039
1040,453.039
1050,454.157
1060,455.221
1060,455.221
1070,456.233
1080,457.197
1090,458.113
1090,458.113
1100,458.985
1110,459.813
1110,459.813
1120,460.601
1130,461.351
1130,461.351
1140,462.063
1150,462.74
1160,463.382
1160,463.382
1170,463.993
1180,464.573
1180,464.573
1190,465.125
1200,465.647
1200,465.647
1210,466.143
1220,466.616
1230,467.064
1230,467.064
1240,467.489
1250,467.892
1250,467.892
1260,468.275
1270,468.639
1270,468.639
1280,468.982
1290,469.309
1300,469.62
1300,469.62
1310,469.915
1320,470.194
1320,470.194
1330,470.458
1340,470.71
1340,470.71
1350,470.947
1360,471.174
1370,471.389
1370,471.389
1380,471.591
1390,471.785
1390,471.785
1400,471.967
1410,472.139
1410,472.139
1420,472.305
1430,472.459
1440,472.608
1440,472.608
1450,472.748
1460,472.88
1460,472.88
1470,473.007
1480,473.126
1480,473.126
1490,473.238
1500,473.346
1510,473.448
1510,473.448
1520,473.543
1530,473.634
1530,473.634
1540,473.72
1550,473.804
1550,473.804
1560,473.881
1570,473.954
1580,474.024
1580,474.024
1590,474.09
1600,474.154
1600,474.154
1610,474.213
1620,474.269
1620,474.269
1630,474.322
1640,474.373
1650,474.42
1650,474.42
1660,474.465
1670,474.508
1670,474.508
1680,474.551
1690,474.59
1690,474.59
1700,474.626
1710,474.66
1720,474.693
1720,474.693
1730,474.724
1740,474.753
1740,474.753
1750,474.781
1760,474.808
1760,474.808
1770,474.832
1780,474.856
1790,474.879
1790,474.879
1800,474.9
1800,474.9