File: results/E_Glass/E_Glass_linear_tga_M_BT/E_Glass_linear_tga_M_BT_0_cone_Temp0.csv
# Time [s], Temperature [C]
0.000000000000000000e+00,25
7,25.1055
14,26.8239
21,30.7337
28,35.9626
35,41.8721
42,48.1124
49,54.4989
56,60.935
63,67.3699
70,73.777
77,80.1422
84,86.458
91,92.7201
98,98.9262
105,105.075
112,111.165
119,117.195
126,123.166
133,129.074
140,134.921
147,140.703
154,146.419
161,152.066
168,157.643
175,163.148
182,168.583
189,173.948
196,179.247
203,184.481
210,189.651
217,194.757
224,199.798
231,204.774
238,209.683
245,214.522
252,219.288
259,223.977
266,228.585
273,233.104
280,237.527
287,241.845
294,246.046
301,250.116
308,254.039
315,257.798
322,261.375
329,264.752
336,267.91
343,270.837
350,273.522
357,275.961
364,278.155
371,280.111
378,281.845
385,283.373
392,284.716
399,285.897
406,286.939
413,287.862
420,288.688
427,289.433
434,290.115
441,290.745
448,291.337
455,291.898
462,292.438
469,292.962
476,293.476
483,293.984
490,294.49
497,294.996
504,295.507
511,296.022
518,296.546
525,297.078
532,297.621
539,298.177
546,298.746
553,299.329
560,299.928
567,300.542
574,301.173
581,301.82
588,302.484
595,303.166
602,303.867
609,304.586
616,305.327
623,306.09
630,306.877
637,307.69
644,308.532
651,309.404
658,310.31
665,311.252
672,312.233
679,313.256
686,314.326
693,315.446
700,316.62
707,317.855
714,319.155
721,320.527
728,321.977
735,323.514
742,325.147
749,326.886
756,328.741
763,330.726
770,332.853
777,335.137
784,337.595
791,340.241
798,343.089
805,346.152
812,349.434
819,352.933
826,356.63
833,360.49
840,364.459
847,368.468
854,372.448
861,376.334
868,380.087
875,383.687
882,387.134
889,390.437
896,393.606
903,396.655
910,399.592
917,402.424
924,405.159
931,407.8
938,410.352
945,412.818
952,415.202
959,417.507
966,419.734
973,421.887
980,423.968
987,425.979
994,427.923
1000,429.536
1010,432.121
1020,434.582
1020,434.582
1030,436.923
1040,439.151
1040,439.151
1050,441.27
1060,443.285
1060,443.285
1070,445.202
1080,447.023
1090,448.755
1090,448.755
1100,450.401
1110,451.965
1110,451.965
1120,453.451
1130,454.862
1130,454.862
1140,456.203
1150,457.476
1160,458.686
1160,458.686
1170,459.834
1180,460.924
1180,460.924
1190,461.959
1200,462.941
1200,462.941
1210,463.873
1220,464.758
1230,465.598
1230,465.598
1240,466.394
1250,467.15
1250,467.15
1260,467.868
1270,468.548
1270,468.548
1280,469.194
1290,469.806
1300,470.387
1300,470.387
1310,470.938
1320,471.46
1320,471.46
1330,471.955
1340,472.425
1340,472.425
1350,472.871
1360,473.293
1370,473.694
1370,473.694
1380,474.073
1390,474.434
1390,474.434
1400,474.775
1410,475.099
1410,475.099
1420,475.405
1430,475.696
1440,475.972
1440,475.972
1450,476.233
1460,476.481
1460,476.481
1470,476.716
1480,476.939
1480,476.939
1490,477.15
1500,477.35
1510,477.539
1510,477.539
1520,477.719
1530,477.889
1530,477.889
1540,478.051
1550,478.204
1550,478.204
1560,478.349
1570,478.486
1580,478.616
1580,478.616
1590,478.74
1600,478.857
1600,478.857
1610,478.967
1620,479.072
1620,479.072
1630,479.172
1640,479.266
1650,479.356
1650,479.356
1660,479.44
1670,479.521
1670,479.521
1680,479.597
1690,479.669
1690,479.669
1700,479.737
1710,479.802
1720,479.863
1720,479.863
1730,479.921
1740,479.976
1740,479.976
1750,480.028
1760,480.078
1760,480.078
1770,480.125
1780,480.169
1790,480.211
1790,480.211
1800,480.251
1800,480.251