File: results/E_Glass/E_Glass_linear_tga_M_BT/E_Glass_linear_tga_M_BT_0_cone_Mass.csv
# Time [s], Mass [Kg]
0.000000000000000000e+00,1
7,1
14,1
21,1
28,1
35,1
42,1
49,1
56,1
63,1
70,1
77,1
84,1
91,1
98,1
105,1
112,1
119,1
126,1
133,1
140,1
147,1
154,1
161,0.999999
168,0.999999
175,0.999998
182,0.999997
189,0.999994
196,0.999991
203,0.999986
210,0.999978
217,0.999966
224,0.999949
231,0.999924
238,0.999888
245,0.999837
252,0.999764
259,0.999664
266,0.999525
273,0.999337
280,0.999085
287,0.99875
294,0.998311
301,0.997743
308,0.997018
315,0.996105
322,0.994974
329,0.993592
336,0.991932
343,0.98997
350,0.987689
357,0.985081
364,0.982146
371,0.978892
378,0.975334
385,0.971494
392,0.967397
399,0.963069
406,0.958538
413,0.953829
420,0.948967
427,0.943974
434,0.93887
441,0.933672
448,0.928397
455,0.923059
462,0.91767
469,0.912243
476,0.906791
483,0.901323
490,0.895851
497,0.890387
504,0.884941
511,0.879527
518,0.874154
525,0.868836
532,0.863584
539,0.858407
546,0.853314
553,0.848314
560,0.843411
567,0.83861
574,0.833911
581,0.829317
588,0.824826
595,0.820439
602,0.816156
609,0.811975
616,0.807896
623,0.803918
630,0.80004
637,0.796262
644,0.792583
651,0.789002
658,0.78552
665,0.782136
672,0.778851
679,0.775664
686,0.772576
693,0.769589
700,0.766702
707,0.763917
714,0.761237
721,0.758662
728,0.756194
735,0.753837
742,0.751594
749,0.749467
756,0.74746
763,0.745578
770,0.743826
777,0.742207
784,0.740727
791,0.739392
798,0.738206
805,0.737174
812,0.736296
819,0.735574
826,0.735002
833,0.734571
840,0.734265
847,0.734063
854,0.73394
861,0.733871
868,0.733836
875,0.73382
882,0.733813
889,0.73381
896,0.733809
903,0.733809
910,0.733809
917,0.733809
924,0.733809
931,0.733809
938,0.733809
945,0.733809
952,0.733809
959,0.733809
966,0.733809
973,0.733809
980,0.733809
987,0.733809
994,0.733809
1000,0.733809
1010,0.733809
1020,0.733809
1020,0.733809
1030,0.733809
1040,0.733809
1040,0.733809
1050,0.733809
1060,0.733809
1060,0.733809
1070,0.733809
1080,0.733809
1090,0.733809
1090,0.733809
1100,0.733809
1110,0.733809
1110,0.733809
1120,0.733809
1130,0.733809
1130,0.733809
1140,0.733809
1150,0.733809
1160,0.733809
1160,0.733809
1170,0.733809
1180,0.733809
1180,0.733809
1190,0.733809
1200,0.733809
1200,0.733809
1210,0.733809
1220,0.733809
1230,0.733809
1230,0.733809
1240,0.733809
1250,0.733809
1250,0.733809
1260,0.733809
1270,0.733809
1270,0.733809
1280,0.733809
1290,0.733809
1300,0.733809
1300,0.733809
1310,0.733809
1320,0.733809
1320,0.733809
1330,0.733809
1340,0.733809
1340,0.733809
1350,0.733809
1360,0.733809
1370,0.733809
1370,0.733809
1380,0.733809
1390,0.733809
1390,0.733809
1400,0.733809
1410,0.733809
1410,0.733809
1420,0.733809
1430,0.733809
1440,0.733809
1440,0.733809
1450,0.733809
1460,0.733809
1460,0.733809
1470,0.733809
1480,0.733809
1480,0.733809
1490,0.733809
1500,0.733809
1510,0.733809
1510,0.733809
1520,0.733809
1530,0.733809
1530,0.733809
1540,0.733809
1550,0.733809
1550,0.733809
1560,0.733809
1570,0.733809
1580,0.733809
1580,0.733809
1590,0.733809
1600,0.733809
1600,0.733809
1610,0.733809
1620,0.733809
1620,0.733809
1630,0.733809
1640,0.733809
1650,0.733809
1650,0.733809
1660,0.733809
1670,0.733809
1670,0.733809
1680,0.733809
1690,0.733809
1690,0.733809
1700,0.733809
1710,0.733809
1720,0.733809
1720,0.733809
1730,0.733809
1740,0.733809
1740,0.733809
1750,0.733809
1760,0.733809
1760,0.733809
1770,0.733809
1780,0.733809
1790,0.733809
1790,0.733809
1800,0.733809
1800,0.733809