File: results/E_Glass/E_Glass_linear_tga_M/E_Glass_linear_tga_M_progressMonitor.csv
Loop,Time,r0-A,p0-C0,p1-C0,p0-Cpa,p1-Cpa,p0-Cpb,p1-Cpb,r0-E,r0-Hp,p0-K,p1-K,Value,r0-Xi,p0-eps,p1-eps,p0-ka,p1-ka,p0-kb,p1-kb,r0-n,r0-nO2,p0-rho,p1-rho,
-1,0,2.40e+12,1.0,0.0,865.57,1927.31,0.170028,0.53255,1.64e+05,193738,7815.71,100000000.0,2.98458e-05,0.733809,0.608112,0.94,0.1939,0.294298,0.000137907,0.000283626,1.07808,0.0,1683.0,1235.0,
2,1292.15,2.36e+12,1.0,0.0,604.573,1712.91,0.117592,0.434656,1.74e+05,181445,19190.4,100000000.0,1.34466e-05,0.733809,0.550489,0.94,0.426822,0.221819,6.85474e-05,0.000583916,1.02518,0.0,1683.0,1235.0,
5,2664.75,2.30e+12,1.0,0.0,435.513,1898.9,0.062766,0.664908,1.76e+05,152075,18937,100000000.0,7.65701e-06,0.733809,0.457346,0.94,0.313376,0.142357,3.16639e-05,0.000597713,1.02591,0.0,1683.0,1235.0,
8,4185.6,2.25e+12,1.0,0.0,333.471,2131.51,0.071853,0.753322,1.75e+05,148679,12586,100000000.0,5.57931e-06,0.733809,0.40359,0.94,0.183645,0.127486,2.54546e-05,0.000655648,1.00769,0.0,1683.0,1235.0,
11,5830.13,2.25e+12,1.0,0.0,311.474,2065.91,0.0672268,0.75813,1.75e+05,147297,12517.5,100000000.0,5.49931e-06,0.733809,0.39206,0.94,0.161218,0.119437,2.25095e-05,0.000647098,1.00833,0.0,1683.0,1235.0,
14,7430.41,2.27e+12,1.0,0.0,313.637,1921.81,0.0728424,0.791018,1.76e+05,146988,11740.7,100000000.0,5.48469e-06,0.733809,0.396288,0.94,0.16446,0.104519,3.11934e-05,0.000643757,1.00437,0.0,1683.0,1235.0,
17,9047.82,2.39e+12,1.0,0.0,296.143,2450.74,0.128728,0.547313,1.76e+05,146380,15026.9,100000000.0,5.43935e-06,0.733809,0.403589,0.94,0.133677,0.271205,8.95208e-05,0.000450843,0.956337,0.0,1683.0,1235.0,
20,10710.9,2.49e+12,1.0,0.0,305.03,2735.95,0.113918,0.521839,1.77e+05,143711,15099.8,100000000.0,5.42144e-06,0.733809,0.408979,0.94,0.142263,0.340512,6.77691e-05,0.000386648,0.918021,0.0,1683.0,1235.0,
23,12309.6,2.44e+12,1.0,0.0,321.532,2486.42,0.0537731,0.781351,1.78e+05,136484,17991.1,100000000.0,5.40867e-06,0.733809,0.413246,0.94,0.159257,0.251896,1.54528e-05,0.00049182,0.900785,0.0,1683.0,1235.0,
26,13885.5,2.44e+12,1.0,0.0,330.123,2459.45,0.03166,0.764855,1.79e+05,135401,17102.2,100000000.0,5.40629e-06,0.733809,0.414525,0.94,0.158956,0.231606,1.24932e-05,0.000517224,0.900454,0.0,1683.0,1235.0,
29,15462.1,2.44e+12,1.0,0.0,330.758,2403.92,0.0277343,0.78378,1.79e+05,134735,17370.2,100000000.0,5.40535e-06,0.733809,0.415123,0.94,0.158988,0.231648,1.12179e-05,0.000507959,0.900027,0.0,1683.0,1235.0,
32,16981,2.41e+12,1.0,0.0,328.958,2248.68,0.0367552,1.02849,1.79e+05,135453,20899.4,100000000.0,5.40431e-06,0.733809,0.415951,0.94,0.16012,0.249494,1.15157e-05,0.000485417,0.900635,0.0,1683.0,1235.0,
35,18469.2,2.44e+12,1.0,0.0,326.395,2257.97,0.0441846,1.02285,1.79e+05,135307,22604.2,100000000.0,5.40265e-06,0.733809,0.417187,0.94,0.159354,0.261765,1.17265e-05,0.000470065,0.900212,0.0,1683.0,1235.0,
38,19949.6,2.45e+12,1.0,0.0,331.073,2153.83,0.0322599,1.00271,1.79e+05,133635,19130.2,100000000.0,5.40051e-06,0.733809,0.419704,0.94,0.160506,0.211311,1.11323e-05,0.000523039,0.900935,0.0,1683.0,1235.0,
41,21553.5,2.45e+12,1.0,0.0,332.67,2003.81,0.0308443,1.03059,1.80e+05,131147,13841.9,100000000.0,5.39643e-06,0.733809,0.424674,0.94,0.161493,0.160946,1.10541e-05,0.000573466,0.902398,0.0,1683.0,1235.0,
44,23124.2,2.46e+12,1.0,0.0,333.065,1951.89,0.0326516,1.03523,1.80e+05,130074,11778.7,100000000.0,5.39437e-06,0.733809,0.42749,0.94,0.161812,0.136418,1.11325e-05,0.0006024,0.903086,0.0,1683.0,1235.0,
47,24738.6,2.47e+12,1.0,0.0,334.247,1855.92,0.0367697,1.03285,1.81e+05,127891,8162.05,100000000.0,5.39206e-06,0.733809,0.433794,0.94,0.162526,0.0800205,1.11269e-05,0.000672957,0.904527,0.0,1683.0,1235.0,
50,26323.4,2.51e+12,1.0,0.0,294.771,2576.46,0.138688,0.184463,1.80e+05,132252,38114,100000000.0,5.38729e-06,0.733809,0.431862,0.94,0.149111,0.105874,5.18064e-05,0.000664766,0.902555,0.0,1683.0,1235.0,
53,27955.9,2.57e+12,1.0,0.0,281.345,2642.03,0.180712,0.126429,1.80e+05,132750,39061.6,100000000.0,5.38365e-06,0.733809,0.43433,0.94,0.154355,0.0835527,5.27563e-05,0.00070382,0.902505,0.0,1683.0,1235.0,
56,29570.5,2.57e+12,1.0,0.0,280.194,2637.17,0.180635,0.158516,1.80e+05,132240,39903.1,100000000.0,5.38172e-06,0.733809,0.434013,0.94,0.156025,0.0960429,4.76806e-05,0.000684753,0.900219,0.0,1683.0,1235.0,
59,31186.7,2.57e+12,1.0,0.0,280.136,2647.05,0.180667,0.128802,1.80e+05,132077,39971,100000000.0,5.38156e-06,0.733809,0.434263,0.94,0.1558,0.0884739,4.84405e-05,0.000693861,0.900054,0.0,1683.0,1235.0,
62,32799,2.56e+12,1.0,0.0,280.12,2650.26,0.180756,0.116726,1.80e+05,131992,39995.9,100000000.0,5.38153e-06,0.733809,0.434429,0.94,0.155792,0.0833827,4.86925e-05,0.000700523,0.900006,0.0,1683.0,1235.0,
65,34356.9,2.56e+12,1.0,0.0,280.105,2649.1,0.180765,0.122303,1.80e+05,132025,39990.5,100000000.0,5.38152e-06,0.733809,0.434358,0.94,0.155807,0.0856111,4.85505e-05,0.000697672,0.900013,0.0,1683.0,1235.0,
68,35855.3,2.56e+12,1.0,0.0,280.115,2650.42,0.180772,0.115342,1.80e+05,131979,39996.7,100000000.0,5.38151e-06,0.733809,0.434448,0.94,0.155808,0.0825403,4.87208e-05,0.000701607,0.900018,0.0,1683.0,1235.0,
71,37350.1,2.56e+12,1.0,0.0,280.115,2648.73,0.180779,0.118913,1.80e+05,131993,39993.9,100000000.0,5.38151e-06,0.733809,0.434425,0.94,0.155865,0.0833996,4.85913e-05,0.000700468,0.900023,0.0,1683.0,1235.0,
74,38805.7,2.56e+12,1.0,0.0,280.115,2648.73,0.180779,0.118913,1.80e+05,131993,39993.9,100000000.0,5.38151e-06,0.733809,0.434425,0.94,0.155865,0.0833996,4.85913e-05,0.000700468,0.900023,0.0,1683.0,1235.0,
77,40273.4,2.29e+12,1.0,0.0,1090.68,1436.54,0.164292,1.01976,1.78e+05,116886,23261.7,100000000.0,5.37508e-06,0.733809,0.94132,0.94,0.263832,0.106554,0.000174541,0.000441664,0.926648,0.0,1683.0,1235.0,
80,41729.2,2.28e+12,1.0,0.0,1100.93,1353.14,0.171697,1.00004,1.78e+05,116383,25005.3,100000000.0,5.36779e-06,0.733809,0.946456,0.94,0.267113,0.157643,0.000175674,0.00034205,0.93596,0.0,1683.0,1235.0,
83,43219.3,2.45e+12,1.0,0.0,1159.32,1500.22,0.0462213,0.492267,1.79e+05,116392,25924.9,100000000.0,5.35158e-06,0.733809,0.949269,0.94,0.264714,0.138272,0.00017378,0.0003488,0.964023,0.0,1683.0,1235.0,
86,44749.6,2.49e+12,1.0,0.0,1181.03,1061.6,0.0415226,0.963766,1.79e+05,115861,25464.1,100000000.0,5.34628e-06,0.733809,0.968507,0.94,0.274284,0.0366592,0.000173553,0.000491456,0.981861,0.0,1683.0,1235.0,
89,46270.1,2.51e+12,1.0,0.0,1191.09,1088.42,0.0132548,0.699765,1.79e+05,114878,28360.3,100000000.0,5.33996e-06,0.733809,0.965997,0.94,0.270225,0.0865851,0.000175831,0.000386903,0.99892,0.0,1683.0,1235.0,
92,47791.8,2.46e+12,1.0,0.0,1197.83,1037.82,0.0133579,0.570739,1.79e+05,114639,38423.4,100000000.0,5.33503e-06,0.733809,0.971014,0.94,0.273547,0.1943,0.000174305,0.000208454,1.02041,0.0,1683.0,1235.0,
95,49272.4,2.44e+12,1.0,0.0,1175.19,849.92,0.0479147,0.739863,1.79e+05,111165,38291.8,100000000.0,5.33222e-06,0.733809,0.972496,0.94,0.274061,0.0322714,0.000171589,0.000424421,1.02448,0.0,1683.0,1235.0,
98,50776.3,2.43e+12,1.0,0.0,1183.15,904.786,0.0435295,0.581986,1.79e+05,110453,39262.2,100000000.0,5.33087e-06,0.733809,0.980465,0.94,0.27798,0.128399,0.000169061,0.000272459,1.02236,0.0,1683.0,1235.0,
101,52300.4,2.42e+12,1.0,0.0,1158.78,845.31,0.08522,0.596582,1.80e+05,109385,39841.2,100000000.0,5.33047e-06,0.733809,0.982574,0.94,0.280616,0.153645,0.000164812,0.000228625,1.02493,0.0,1683.0,1235.0,
104,53769.9,2.41e+12,1.0,0.0,1121.04,648.031,0.131684,0.815638,1.80e+05,107298,39653,100000000.0,5.33011e-06,0.733809,0.982529,0.94,0.284646,0.139821,0.00015258,0.000242114,1.0236,0.0,1683.0,1235.0,
107,55264.9,2.38e+12,1.0,0.0,1122.42,475.042,0.110071,1.01534,1.81e+05,105374,38354.2,100000000.0,5.32968e-06,0.733809,0.983583,0.94,0.29616,0.100058,0.000127224,0.000291502,1.02241,0.0,1683.0,1235.0,
110,56806.7,2.39e+12,1.0,0.0,1121.3,468.015,0.10327,1.02783,1.81e+05,104901,38195.9,100000000.0,5.32943e-06,0.733809,0.984334,0.94,0.30105,0.0896244,0.00011685,0.000308592,1.01995,0.0,1683.0,1235.0,
113,58383.3,2.40e+12,1.0,0.0,1115.39,438.043,0.0932426,1.01752,1.81e+05,103062,38350.7,100000000.0,5.32898e-06,0.733809,0.988454,0.94,0.309449,0.050376,9.85282e-05,0.000363091,1.01806,0.0,1683.0,1235.0,
116,60039.6,2.41e+12,1.0,0.0,1114.96,440.888,0.085554,1.00394,1.82e+05,102453,38288.4,100000000.0,5.3288e-06,0.733809,0.9893,0.94,0.313419,0.0363392,8.97522e-05,0.000383381,1.01678,0.0,1683.0,1235.0,