File: results/E_Glass/E_Glass_linear_tga_M/E_Glass_linear_tga_M_0_cone_FT.csv
# Time [s], Temperature [C]
0.000000000000000000e+00,25
7,91.2956
14,124.939
21,148.536
28,167.125
35,182.572
42,195.816
49,207.415
56,217.737
63,227.046
70,235.534
77,243.354
84,250.624
91,257.437
98,263.868
105,269.976
112,275.804
119,281.385
126,286.745
133,291.903
140,296.876
147,301.68
154,306.33
161,310.835
168,315.206
175,319.449
182,323.57
189,327.573
196,331.461
203,335.235
210,338.897
217,342.447
224,345.882
231,349.206
238,352.417
245,355.509
252,358.489
259,361.355
266,364.096
273,366.729
280,369.251
287,371.649
294,373.949
301,376.146
308,378.23
315,380.231
322,382.147
329,383.966
336,385.725
343,387.419
350,389.034
357,390.611
364,392.142
371,393.612
378,395.059
385,396.475
392,397.846
399,399.203
406,400.536
413,401.835
420,403.119
427,404.385
434,405.619
441,406.84
448,408.04
455,409.209
462,410.358
469,411.485
476,412.584
483,413.66
490,414.712
497,415.734
504,416.734
511,417.706
518,418.656
525,419.579
532,420.479
539,421.359
546,422.215
553,423.05
560,423.867
567,424.665
574,425.444
581,426.207
588,426.955
595,427.688
602,428.406
609,429.113
616,429.808
623,430.492
630,431.165
637,431.829
644,432.484
651,433.13
658,433.771
665,434.403
672,435.033
679,435.655
686,436.273
693,436.888
700,437.499
707,438.109
714,438.715
721,439.323
728,439.928
735,440.535
742,441.142
749,441.751
756,442.361
763,442.975
770,443.593
777,444.213
784,444.839
791,445.47
798,446.108
805,446.75
812,447.401
819,448.057
826,448.718
833,449.388
840,450.064
847,450.744
854,451.43
861,452.118
868,452.807
875,453.496
882,454.183
889,454.865
896,455.54
903,456.205
910,456.861
917,457.503
924,458.13
931,458.742
938,459.338
945,459.917
952,460.478
959,461.022
966,461.55
973,462.06
980,462.553
987,463.031
994,463.492
1000,463.876
1010,464.49
1020,465.075
1020,465.075
1030,465.632
1040,466.162
1040,466.162
1050,466.668
1060,467.148
1060,467.148
1070,467.605
1080,468.041
1090,468.455
1090,468.455
1100,468.849
1110,469.225
1110,469.225
1120,469.582
1130,469.922
1130,469.922
1140,470.246
1150,470.554
1160,470.846
1160,470.846
1170,471.126
1180,471.391
1180,471.391
1190,471.643
1200,471.884
1200,471.884
1210,472.113
1220,472.33
1230,472.538
1230,472.538
1240,472.734
1250,472.922
1250,472.922
1260,473.1
1270,473.269
1270,473.269
1280,473.431
1290,473.584
1300,473.731
1300,473.731
1310,473.87
1320,474.002
1320,474.002
1330,474.129
1340,474.248
1340,474.248
1350,474.361
1360,474.471
1370,474.574
1370,474.574
1380,474.672
1390,474.764
1390,474.764
1400,474.853
1410,474.939
1410,474.939
1420,475.019
1430,475.095
1440,475.167
1440,475.167
1450,475.236
1460,475.304
1460,475.304
1470,475.366
1480,475.425
1480,475.425
1490,475.482
1500,475.536
1510,475.587
1510,475.587
1520,475.635
1530,475.683
1530,475.683
1540,475.727
1550,475.769
1550,475.769
1560,475.809
1570,475.847
1580,475.883
1580,475.883
1590,475.917
1600,475.95
1600,475.95
1610,475.981
1620,476.011
1620,476.011
1630,476.039
1640,476.067
1650,476.092
1650,476.092
1660,476.117
1670,476.14
1670,476.14
1680,476.162
1690,476.182
1690,476.182
1700,476.202
1710,476.221
1720,476.239
1720,476.239
1730,476.256
1740,476.272
1740,476.272
1750,476.288
1760,476.302
1760,476.302
1770,476.316
1780,476.33
1790,476.342
1790,476.342
1800,476.354
1800,476.354