File: results/E_Glass/E_Glass_linear_tga_M/E_Glass_linear_tga_M_0_cone_Bh.csv
# Time [s], Convective Heat Transfer Coefficient [W/m2K]
0.000000000000000000e+00,0.000000000000000000e+00
7,0.0578049
14,0.434114
21,1.05846
28,1.72388
35,2.35166
42,2.92308
49,3.43824
56,3.9025
63,4.32219
70,4.70323
77,5.05075
84,5.36916
91,5.66215
98,5.93282
105,6.1838
112,6.41733
119,6.6353
126,6.83934
133,7.03085
140,7.21104
147,7.38097
154,7.54156
161,7.69362
168,7.83787
175,7.97493
182,8.10535
189,8.22965
196,8.34824
203,8.46154
210,8.56988
217,8.67359
224,8.77294
231,8.86818
238,8.95954
245,9.04722
252,9.13141
259,9.21225
266,9.2899
273,9.36449
280,9.43613
287,9.50492
294,9.57095
301,9.6343
308,9.69504
315,9.75323
322,9.80893
329,9.86218
336,9.91302
343,9.96148
350,10.0076
357,10.0514
364,10.093
371,10.1323
378,10.1694
385,10.2044
392,10.2373
399,10.2681
406,10.2969
413,10.3238
420,10.3488
427,10.3721
434,10.3938
441,10.4138
448,10.4325
455,10.4497
462,10.4657
469,10.4806
476,10.4945
483,10.5075
490,10.5196
497,10.5311
504,10.5419
511,10.5521
518,10.562
525,10.5714
532,10.5805
539,10.5893
546,10.598
553,10.6065
560,10.6148
567,10.6231
574,10.6314
581,10.6396
588,10.6479
595,10.6562
602,10.6646
609,10.6731
616,10.6818
623,10.6905
630,10.6994
637,10.7085
644,10.7177
651,10.7272
658,10.7369
665,10.7468
672,10.757
679,10.7675
686,10.7782
693,10.7893
700,10.8006
707,10.8124
714,10.8244
721,10.8369
728,10.8498
735,10.8631
742,10.8768
749,10.891
756,10.9056
763,10.9208
770,10.9364
777,10.9526
784,10.9692
791,10.9864
798,11.0041
805,11.0222
812,11.0408
819,11.0597
826,11.079
833,11.0984
840,11.118
847,11.1376
854,11.157
861,11.1761
868,11.1949
875,11.2132
882,11.231
889,11.2481
896,11.2646
903,11.2804
910,11.2955
917,11.31
924,11.324
931,11.3373
938,11.3502
945,11.3625
952,11.3744
959,11.3858
966,11.3968
973,11.4074
980,11.4176
987,11.4274
994,11.4369
1000,11.4447
1010,11.4572
1020,11.4692
1020,11.4692
1030,11.4805
1040,11.4912
1040,11.4912
1050,11.5014
1060,11.5111
1060,11.5111
1070,11.5203
1080,11.529
1090,11.5373
1090,11.5373
1100,11.5452
1110,11.5527
1110,11.5527
1120,11.5598
1130,11.5666
1130,11.5666
1140,11.573
1150,11.5791
1160,11.5849
1160,11.5849
1170,11.5904
1180,11.5957
1180,11.5957
1190,11.6007
1200,11.6054
1200,11.6054
1210,11.6099
1220,11.6142
1230,11.6183
1230,11.6183
1240,11.6222
1250,11.6258
1250,11.6258
1260,11.6293
1270,11.6327
1270,11.6327
1280,11.6358
1290,11.6388
1300,11.6417
1300,11.6417
1310,11.6444
1320,11.647
1320,11.647
1330,11.6495
1340,11.6518
1340,11.6518
1350,11.654
1360,11.6562
1370,11.6582
1370,11.6582
1380,11.6601
1390,11.6619
1390,11.6619
1400,11.6636
1410,11.6653
1410,11.6653
1420,11.6668
1430,11.6683
1440,11.6698
1440,11.6698
1450,11.6711
1460,11.6724
1460,11.6724
1470,11.6736
1480,11.6748
1480,11.6748
1490,11.6759
1500,11.6769
1510,11.6779
1510,11.6779
1520,11.6789
1530,11.6798
1530,11.6798
1540,11.6806
1550,11.6814
1550,11.6814
1560,11.6822
1570,11.6829
1580,11.6836
1580,11.6836
1590,11.6843
1600,11.6849
1600,11.6849
1610,11.6856
1620,11.6861
1620,11.6861
1630,11.6867
1640,11.6872
1650,11.6877
1650,11.6877
1660,11.6882
1670,11.6886
1670,11.6886
1680,11.689
1690,11.6894
1690,11.6894
1700,11.6898
1710,11.6902
1720,11.6905
1720,11.6905
1730,11.6909
1740,11.6912
1740,11.6912
1750,11.6915
1760,11.6918
1760,11.6918
1770,11.692
1780,11.6923
1790,11.6926
1790,11.6926
1800,11.6928
1800,11.6928