File: results/E_Glass/E_Glass_linear_tga_M/E_Glass_linear_tga_M_0_cone_Mass.csv
# Time [s], Mass [Kg]
0.000000000000000000e+00,1
7,1
14,1
21,1
28,1
35,1
42,1
49,1
56,1
63,1
70,1
77,1
84,1
91,0.999999
98,0.999999
105,0.999998
112,0.999996
119,0.999994
126,0.99999
133,0.999985
140,0.999978
147,0.999967
154,0.999953
161,0.999933
168,0.999905
175,0.999868
182,0.99982
189,0.999756
196,0.999673
203,0.999567
210,0.999431
217,0.999261
224,0.999048
231,0.998785
238,0.998463
245,0.998072
252,0.997601
259,0.99704
266,0.996377
273,0.995602
280,0.994701
287,0.993666
294,0.992484
301,0.991148
308,0.989648
315,0.987977
322,0.98613
329,0.984102
336,0.981889
343,0.97949
350,0.976902
357,0.974127
364,0.971164
371,0.968017
378,0.964688
385,0.961181
392,0.957502
399,0.953657
406,0.949653
413,0.9455
420,0.941206
427,0.936784
434,0.932244
441,0.927601
448,0.922865
455,0.918052
462,0.913175
469,0.908248
476,0.903283
483,0.898295
490,0.893294
497,0.888293
504,0.883303
511,0.878332
518,0.87339
525,0.868484
532,0.863623
539,0.858812
546,0.854056
553,0.849361
560,0.844731
567,0.840169
574,0.835678
581,0.831262
588,0.826922
595,0.822661
602,0.81848
609,0.814381
616,0.810366
623,0.806435
630,0.802591
637,0.798833
644,0.795164
651,0.791585
658,0.788097
665,0.784702
672,0.7814
679,0.778193
686,0.775083
693,0.772072
700,0.769161
707,0.766353
714,0.763649
721,0.761052
728,0.758565
735,0.756189
742,0.753927
749,0.751783
756,0.749758
763,0.747855
770,0.746077
777,0.744426
784,0.742904
791,0.741513
798,0.740254
805,0.739125
812,0.738127
819,0.737257
826,0.73651
833,0.735882
840,0.735363
847,0.734945
854,0.734618
861,0.734368
868,0.734183
875,0.734052
882,0.733961
889,0.733901
896,0.733862
903,0.733839
910,0.733825
917,0.733817
924,0.733813
931,0.733811
938,0.73381
945,0.733809
952,0.733809
959,0.733809
966,0.733809
973,0.733809
980,0.733809
987,0.733809
994,0.733809
1000,0.733809
1010,0.733809
1020,0.733809
1020,0.733809
1030,0.733809
1040,0.733809
1040,0.733809
1050,0.733809
1060,0.733809
1060,0.733809
1070,0.733809
1080,0.733809
1090,0.733809
1090,0.733809
1100,0.733809
1110,0.733809
1110,0.733809
1120,0.733809
1130,0.733809
1130,0.733809
1140,0.733809
1150,0.733809
1160,0.733809
1160,0.733809
1170,0.733809
1180,0.733809
1180,0.733809
1190,0.733809
1200,0.733809
1200,0.733809
1210,0.733809
1220,0.733809
1230,0.733809
1230,0.733809
1240,0.733809
1250,0.733809
1250,0.733809
1260,0.733809
1270,0.733809
1270,0.733809
1280,0.733809
1290,0.733809
1300,0.733809
1300,0.733809
1310,0.733809
1320,0.733809
1320,0.733809
1330,0.733809
1340,0.733809
1340,0.733809
1350,0.733809
1360,0.733809
1370,0.733809
1370,0.733809
1380,0.733809
1390,0.733809
1390,0.733809
1400,0.733809
1410,0.733809
1410,0.733809
1420,0.733809
1430,0.733809
1440,0.733809
1440,0.733809
1450,0.733809
1460,0.733809
1460,0.733809
1470,0.733809
1480,0.733809
1480,0.733809
1490,0.733809
1500,0.733809
1510,0.733809
1510,0.733809
1520,0.733809
1530,0.733809
1530,0.733809
1540,0.733809
1550,0.733809
1550,0.733809
1560,0.733809
1570,0.733809
1580,0.733809
1580,0.733809
1590,0.733809
1600,0.733809
1600,0.733809
1610,0.733809
1620,0.733809
1620,0.733809
1630,0.733809
1640,0.733809
1650,0.733809
1650,0.733809
1660,0.733809
1670,0.733809
1670,0.733809
1680,0.733809
1690,0.733809
1690,0.733809
1700,0.733809
1710,0.733809
1720,0.733809
1720,0.733809
1730,0.733809
1740,0.733809
1740,0.733809
1750,0.733809
1760,0.733809
1760,0.733809
1770,0.733809
1780,0.733809
1790,0.733809
1790,0.733809
1800,0.733809
1800,0.733809