File: results/E_Glass/E_Glass_linear_tga_M/E_Glass_linear_tga_M_0_cone_BT.csv
# Time [s], Temperature [C]
0.000000000000000000e+00,25
7,25.0001
14,25.0233
21,25.3377
28,26.4588
35,28.7033
42,32.112
49,36.5738
56,41.9239
63,47.9923
70,54.6249
77,61.6892
84,69.0747
91,76.6907
98,84.4638
105,92.3342
112,100.254
119,108.186
126,116.099
133,123.967
140,131.773
147,139.501
154,147.139
161,154.677
168,162.108
175,169.427
182,176.63
189,183.713
196,190.674
203,197.511
210,204.223
217,210.809
224,217.267
231,223.597
238,229.798
245,235.87
252,241.811
259,247.621
266,253.298
273,258.842
280,264.249
287,269.52
294,274.651
301,279.642
308,284.488
315,289.189
322,293.741
329,298.141
336,302.387
343,306.476
350,310.405
357,314.171
364,317.772
371,321.207
378,324.475
385,327.574
392,330.507
399,333.273
406,335.876
413,338.318
420,340.605
427,342.741
434,344.734
441,346.59
448,348.317
455,349.925
462,351.422
469,352.818
476,354.122
483,355.343
490,356.49
497,357.572
504,358.597
511,359.573
518,360.508
525,361.407
532,362.277
539,363.123
546,363.952
553,364.766
560,365.571
567,366.37
574,367.167
581,367.965
588,368.766
595,369.573
602,370.388
609,371.215
616,372.054
623,372.907
630,373.777
637,374.665
644,375.574
651,376.504
658,377.457
665,378.436
672,379.442
679,380.476
686,381.541
693,382.639
700,383.772
707,384.941
714,386.149
721,387.398
728,388.69
735,390.028
742,391.413
749,392.848
756,394.335
763,395.876
770,397.473
777,399.126
784,400.837
791,402.606
798,404.43
805,406.31
812,408.24
819,410.215
826,412.229
833,414.273
840,416.335
847,418.404
854,420.466
861,422.507
868,424.515
875,426.478
882,428.386
889,430.234
896,432.016
903,433.731
910,435.381
917,436.966
924,438.49
931,439.956
938,441.367
945,442.726
952,444.036
959,445.299
966,446.517
973,447.692
980,448.827
987,449.922
994,450.98
1000,451.857
1010,453.262
1020,454.599
1020,454.599
1030,455.871
1040,457.081
1040,457.081
1050,458.232
1060,459.327
1060,459.327
1070,460.369
1080,461.36
1090,462.304
1090,462.304
1100,463.201
1110,464.055
1110,464.055
1120,464.867
1130,465.64
1130,465.64
1140,466.375
1150,467.075
1160,467.741
1160,467.741
1170,468.374
1180,468.976
1180,468.976
1190,469.549
1200,470.095
1200,470.095
1210,470.613
1220,471.107
1230,471.577
1230,471.577
1240,472.023
1250,472.448
1250,472.448
1260,472.853
1270,473.237
1270,473.237
1280,473.603
1290,473.951
1300,474.282
1300,474.282
1310,474.598
1320,474.897
1320,474.897
1330,475.182
1340,475.454
1340,475.454
1350,475.712
1360,475.957
1370,476.191
1370,476.191
1380,476.413
1390,476.625
1390,476.625
1400,476.826
1410,477.017
1410,477.017
1420,477.199
1430,477.372
1440,477.537
1440,477.537
1450,477.694
1460,477.843
1460,477.843
1470,477.984
1480,478.119
1480,478.119
1490,478.248
1500,478.37
1510,478.486
1510,478.486
1520,478.596
1530,478.702
1530,478.702
1540,478.802
1550,478.897
1550,478.897
1560,478.987
1570,479.073
1580,479.155
1580,479.155
1590,479.233
1600,479.307
1600,479.307
1610,479.378
1620,479.445
1620,479.445
1630,479.509
1640,479.569
1650,479.627
1650,479.627
1660,479.682
1670,479.734
1670,479.734
1680,479.784
1690,479.831
1690,479.831
1700,479.876
1710,479.919
1720,479.96
1720,479.96
1730,479.999
1740,480.035
1740,480.035
1750,480.071
1760,480.104
1760,480.104
1770,480.136
1780,480.166
1790,480.195
1790,480.195
1800,480.222
1800,480.222